title:club, start timestamp:1605183911.419146, stop timestamp:1605183972.305220, headset type:EPOCPLUS, headset serial:3B9AEC95, headset firmware:625, channels:108, sampling rate:eeg_128;pow_8, samples:7729      , version:2.0
Timestamp,EEG.Counter,EEG.Interpolated,EEG.AF3,EEG.F7,EEG.F3,EEG.FC5,EEG.T7,EEG.P7,EEG.O1,EEG.O2,EEG.P8,EEG.T8,EEG.FC6,EEG.F4,EEG.F8,EEG.AF4,EEG.RawCq,EEG.Battery,MarkerIndex,MarkerType,MarkerValueInt,EEG.MarkerHardware,CQ.AF3,CQ.F7,CQ.F3,CQ.FC5,CQ.T7,CQ.P7,CQ.O1,CQ.O2,CQ.P8,CQ.T8,CQ.FC6,CQ.F4,CQ.F8,CQ.AF4,CQ.Overall,POW.AF3.Theta,POW.AF3.Alpha,POW.AF3.BetaL,POW.AF3.BetaH,POW.AF3.Gamma,POW.F7.Theta,POW.F7.Alpha,POW.F7.BetaL,POW.F7.BetaH,POW.F7.Gamma,POW.F3.Theta,POW.F3.Alpha,POW.F3.BetaL,POW.F3.BetaH,POW.F3.Gamma,POW.FC5.Theta,POW.FC5.Alpha,POW.FC5.BetaL,POW.FC5.BetaH,POW.FC5.Gamma,POW.T7.Theta,POW.T7.Alpha,POW.T7.BetaL,POW.T7.BetaH,POW.T7.Gamma,POW.P7.Theta,POW.P7.Alpha,POW.P7.BetaL,POW.P7.BetaH,POW.P7.Gamma,POW.O1.Theta,POW.O1.Alpha,POW.O1.BetaL,POW.O1.BetaH,POW.O1.Gamma,POW.O2.Theta,POW.O2.Alpha,POW.O2.BetaL,POW.O2.BetaH,POW.O2.Gamma,POW.P8.Theta,POW.P8.Alpha,POW.P8.BetaL,POW.P8.BetaH,POW.P8.Gamma,POW.T8.Theta,POW.T8.Alpha,POW.T8.BetaL,POW.T8.BetaH,POW.T8.Gamma,POW.FC6.Theta,POW.FC6.Alpha,POW.FC6.BetaL,POW.FC6.BetaH,POW.FC6.Gamma,POW.F4.Theta,POW.F4.Alpha,POW.F4.BetaL,POW.F4.BetaH,POW.F4.Gamma,POW.F8.Theta,POW.F8.Alpha,POW.F8.BetaL,POW.F8.BetaH,POW.F8.Gamma,POW.AF4.Theta,POW.AF4.Alpha,POW.AF4.BetaL,POW.AF4.BetaH,POW.AF4.Gamma
1605183911.419146,72.000000,0.000000,4154.615234,4195.256348,4173.077148,4143.846191,4115.384766,4141.410156,4130.256348,4172.820313,4168.461426,4144.102539,4081.538574,4163.974121,4211.922852,4173.589844,2602.000000,3.000000,,,,0.000000,4.000000,4.000000,4.000000,4.000000,4.000000,4.000000,4.000000,4.000000,4.000000,4.000000,4.000000,4.000000,4.000000,4.000000,100.000000,,,,,,,,,,,,,,,,,,,,,,,,,,,,,,,,,,,,,,,,,,,,,,,,,,,,,,,,,,,,,,,,,,,,,,
1605183911.426934,73.000000,0.000000,4149.230957,4201.153809,4168.333496,4133.846191,4121.282227,4136.538574,4128.077148,4172.051270,4166.153809,4122.563965,4072.307617,4160.384766,4210.897461,4171.666504,2765.000000,3.000000,,,,0.000000,4.000000,4.000000,4.000000,4.000000,4.000000,4.000000,4.000000,4.000000,4.000000,4.000000,4.000000,4.000000,4.000000,4.000000,100.000000,,,,,,,,,,,,,,,,,,,,,,,,,,,,,,,,,,,,,,,,,,,,,,,,,,,,,,,,,,,,,,,,,,,,,,
1605183911.434821,74.000000,0.000000,4146.666504,4206.794922,4165.000000,4126.282227,4118.717773,4133.077148,4125.769043,4172.948730,4165.512695,4112.563965,4070.256348,4157.692383,4204.487305,4169.871582,2544.000000,3.000000,,,,0.000000,4.000000,4.000000,4.000000,4.000000,4.000000,4.000000,4.000000,4.000000,4.000000,4.000000,4.000000,4.000000,4.000000,4.000000,100.000000,1.751688,1.599972,1.081599,0.331767,0.307349,2.027129,1.755320,0.697989,0.914332,0.622221,1.098350,0.996725,1.064514,0.275868,0.327468,1.497082,0.864935,2.020435,2.738780,2.530066,0.964264,1.424755,0.694345,1.141152,1.120462,0.512720,0.938754,0.467969,0.235853,0.169359,0.884233,0.648770,0.502823,0.180331,0.114145,0.468456,0.410947,0.244878,0.091218,0.055877,0.275027,0.822718,0.400367,0.164998,0.145124,1.000356,2.577762,1.761745,4.600352,3.183058,8.934460,12.780090,5.196343,1.892900,1.692283,0.244084,0.266111,0.127171,0.089511,0.056402,1.752986,2.553407,1.530053,0.755888,0.700986,1.397277,0.961468,0.458162,0.197940,0.122118
1605183911.442609,75.000000,0.000000,4144.230957,4200.384766,4161.410156,4133.846191,4111.153809,4134.487305,4124.230957,4172.307617,4164.487305,4134.615234,4068.718018,4160.512695,4207.051270,4168.589844,2058.000000,3.000000,,,,0.000000,4.000000,4.000000,4.000000,4.000000,4.000000,4.000000,4.000000,4.000000,4.000000,4.000000,4.000000,4.000000,4.000000,4.000000,100.000000,,,,,,,,,,,,,,,,,,,,,,,,,,,,,,,,,,,,,,,,,,,,,,,,,,,,,,,,,,,,,,,,,,,,,,
1605183911.450496,76.000000,0.000000,4142.051270,4201.025879,4160.512695,4136.538574,4113.974121,4134.230957,4127.307617,4172.563965,4171.922852,4138.461426,4070.256348,4162.563965,4211.153809,4170.512695,4134.000000,3.000000,,,,0.000000,4.000000,4.000000,4.000000,4.000000,4.000000,4.000000,4.000000,4.000000,4.000000,4.000000,4.000000,4.000000,4.000000,4.000000,100.000000,,,,,,,,,,,,,,,,,,,,,,,,,,,,,,,,,,,,,,,,,,,,,,,,,,,,,,,,,,,,,,,,,,,,,,
1605183911.458284,77.000000,0.000000,4137.436035,4201.794922,4156.538574,4123.333496,4109.615234,4126.410156,4126.153809,4170.769043,4171.025879,4106.794922,4054.743652,4161.153809,4200.128418,4170.769043,1906.000000,3.000000,,,,0.000000,4.000000,4.000000,4.000000,4.000000,4.000000,4.000000,4.000000,4.000000,4.000000,4.000000,4.000000,4.000000,4.000000,4.000000,100.000000,,,,,,,,,,,,,,,,,,,,,,,,,,,,,,,,,,,,,,,,,,,,,,,,,,,,,,,,,,,,,,,,,,,,,,
1605183911.466171,78.000000,0.000000,4135.512695,4194.230957,4155.000000,4114.230957,4113.461426,4126.538574,4123.974121,4167.436035,4161.410156,4113.589844,4043.718018,4157.179688,4196.922852,4172.692383,2544.000000,3.000000,,,,0.000000,4.000000,4.000000,4.000000,4.000000,4.000000,4.000000,4.000000,4.000000,4.000000,4.000000,4.000000,4.000000,4.000000,4.000000,100.000000,,,,,,,,,,,,,,,,,,,,,,,,,,,,,,,,,,,,,,,,,,,,,,,,,,,,,,,,,,,,,,,,,,,,,,
1605183911.473959,79.000000,0.000000,4130.128418,4180.256348,4157.051270,4112.436035,4111.153809,4125.000000,4118.461426,4165.000000,4153.205078,4132.051270,4042.307617,4154.230957,4196.666504,4173.077148,2058.000000,3.000000,,,,0.000000,4.000000,4.000000,4.000000,4.000000,4.000000,4.000000,4.000000,4.000000,4.000000,4.000000,4.000000,4.000000,4.000000,4.000000,100.000000,,,,,,,,,,,,,,,,,,,,,,,,,,,,,,,,,,,,,,,,,,,,,,,,,,,,,,,,,,,,,,,,,,,,,,
1605183911.481846,80.000000,0.000000,4133.974121,4185.641113,4165.384766,4126.282227,4096.282227,4125.128418,4120.128418,4166.794922,4158.333496,4122.948730,4051.794922,4159.871582,4195.000000,4176.666504,4134.000000,3.000000,,,,0.000000,4.000000,4.000000,4.000000,4.000000,4.000000,4.000000,4.000000,4.000000,4.000000,4.000000,4.000000,4.000000,4.000000,4.000000,100.000000,,,,,,,,,,,,,,,,,,,,,,,,,,,,,,,,,,,,,,,,,,,,,,,,,,,,,,,,,,,,,,,,,,,,,,
1605183911.489633,81.000000,0.000000,4137.051270,4186.538574,4171.666504,4134.487305,4097.948730,4126.153809,4119.871582,4163.205078,4158.461426,4109.487305,4049.743652,4159.871582,4198.077148,4175.897461,1906.000000,3.000000,,,,0.000000,4.000000,4.000000,4.000000,4.000000,4.000000,4.000000,4.000000,4.000000,4.000000,4.000000,4.000000,4.000000,4.000000,4.000000,100.000000,,,,,,,,,,,,,,,,,,,,,,,,,,,,,,,,,,,,,,,,,,,,,,,,,,,,,,,,,,,,,,,,,,,,,,
1605183911.497520,82.000000,0.000000,4130.512695,4176.025879,4165.512695,4122.051270,4120.128418,4125.769043,4115.128418,4160.128418,4153.846191,4114.230957,4041.538574,4152.820313,4205.000000,4173.077148,2544.000000,3.000000,,,,0.000000,4.000000,4.000000,4.000000,4.000000,4.000000,4.000000,4.000000,4.000000,4.000000,4.000000,4.000000,4.000000,4.000000,4.000000,100.000000,,,,,,,,,,,,,,,,,,,,,,,,,,,,,,,,,,,,,,,,,,,,,,,,,,,,,,,,,,,,,,,,,,,,,,
1605183911.505308,83.000000,0.000000,4120.897461,4173.846191,4148.077148,4106.410156,4119.743652,4121.153809,4108.333496,4158.974121,4151.282227,4108.589844,4032.820557,4148.589844,4191.025879,4173.589844,2058.000000,3.000000,,,,0.000000,4.000000,4.000000,4.000000,4.000000,4.000000,4.000000,4.000000,4.000000,4.000000,4.000000,4.000000,4.000000,4.000000,4.000000,100.000000,,,,,,,,,,,,,,,,,,,,,,,,,,,,,,,,,,,,,,,,,,,,,,,,,,,,,,,,,,,,,,,,,,,,,,
1605183911.513195,84.000000,0.000000,4125.641113,4188.846191,4145.769043,4122.563965,4110.512695,4121.282227,4106.282227,4159.230957,4153.717773,4101.794922,4026.281982,4151.666504,4182.436035,4176.538574,4134.000000,3.000000,,,,0.000000,4.000000,4.000000,4.000000,4.000000,4.000000,4.000000,4.000000,4.000000,4.000000,4.000000,4.000000,4.000000,4.000000,4.000000,100.000000,,,,,,,,,,,,,,,,,,,,,,,,,,,,,,,,,,,,,,,,,,,,,,,,,,,,,,,,,,,,,,,,,,,,,,
1605183911.520982,85.000000,0.000000,4131.025879,4195.897461,4153.589844,4130.897461,4107.307617,4118.461426,4103.846191,4158.077148,4153.974121,4105.384766,4024.487061,4151.410156,4196.922852,4174.871582,1906.000000,3.000000,,,,0.000000,4.000000,4.000000,4.000000,4.000000,4.000000,4.000000,4.000000,4.000000,4.000000,4.000000,4.000000,4.000000,4.000000,4.000000,100.000000,,,,,,,,,,,,,,,,,,,,,,,,,,,,,,,,,,,,,,,,,,,,,,,,,,,,,,,,,,,,,,,,,,,,,,
1605183911.528970,86.000000,0.000000,4132.436035,4194.743652,4154.743652,4118.974121,4096.410156,4120.512695,4110.128418,4163.333496,4159.487305,4123.077148,4030.128174,4152.436035,4205.128418,4176.410156,2544.000000,3.000000,,,,0.000000,4.000000,4.000000,4.000000,4.000000,4.000000,4.000000,4.000000,4.000000,4.000000,4.000000,4.000000,4.000000,4.000000,4.000000,100.000000,,,,,,,,,,,,,,,,,,,,,,,,,,,,,,,,,,,,,,,,,,,,,,,,,,,,,,,,,,,,,,,,,,,,,,
1605183911.536959,87.000000,0.000000,4132.436035,4190.897461,4151.025879,4119.230957,4084.743652,4126.153809,4117.820313,4169.615234,4163.974121,4136.282227,4040.256348,4154.358887,4200.000000,4178.846191,2058.000000,3.000000,,,,0.000000,4.000000,4.000000,4.000000,4.000000,4.000000,4.000000,4.000000,4.000000,4.000000,4.000000,4.000000,4.000000,4.000000,4.000000,100.000000,,,,,,,,,,,,,,,,,,,,,,,,,,,,,,,,,,,,,,,,,,,,,,,,,,,,,,,,,,,,,,,,,,,,,,
1605183911.544849,88.000000,0.000000,4133.333496,4191.538574,4151.410156,4130.641113,4106.538574,4130.769043,4119.487305,4170.256348,4165.512695,4122.820313,4058.974365,4157.820313,4206.410156,4181.922852,4134.000000,3.000000,,,,0.000000,4.000000,4.000000,4.000000,4.000000,4.000000,4.000000,4.000000,4.000000,4.000000,4.000000,4.000000,4.000000,4.000000,4.000000,100.000000,,,,,,,,,,,,,,,,,,,,,,,,,,,,,,,,,,,,,,,,,,,,,,,,,,,,,,,,,,,,,,,,,,,,,,
1605183911.552838,89.000000,0.000000,4134.871582,4199.487305,4154.358887,4143.333496,4124.487305,4129.487305,4117.436035,4165.512695,4165.128418,4120.641113,4077.307617,4157.820313,4210.641113,4185.512695,1906.000000,3.000000,,,,0.000000,4.000000,4.000000,4.000000,4.000000,4.000000,4.000000,4.000000,4.000000,4.000000,4.000000,4.000000,4.000000,4.000000,4.000000,100.000000,,,,,,,,,,,,,,,,,,,,,,,,,,,,,,,,,,,,,,,,,,,,,,,,,,,,,,,,,,,,,,,,,,,,,,
1605183911.560727,90.000000,0.000000,4130.512695,4198.974121,4154.615234,4135.512695,4098.589844,4122.307617,4112.307617,4160.384766,4160.384766,4127.051270,4059.487061,4149.230957,4198.846191,4182.436035,2544.000000,3.000000,,,,0.000000,4.000000,4.000000,4.000000,4.000000,4.000000,4.000000,4.000000,4.000000,4.000000,4.000000,4.000000,4.000000,4.000000,4.000000,100.000000,1.871714,1.507760,1.025570,0.333150,0.264883,1.968910,1.603493,0.672456,0.737963,0.553917,1.194639,0.998910,0.970190,0.253600,0.267643,1.678316,0.748546,1.641183,2.655625,2.423049,1.121582,1.208537,0.705817,1.214597,1.069605,0.667826,0.851451,0.393262,0.270983,0.170480,1.079915,0.667093,0.473026,0.201144,0.114857,0.421994,0.412221,0.240711,0.087527,0.055306,0.310544,0.825948,0.384225,0.175496,0.132259,1.174513,2.676443,1.640754,4.696333,2.759525,10.652895,12.765991,4.986751,1.919294,1.652311,0.283972,0.244091,0.119360,0.095682,0.058755,1.932906,2.548457,1.612506,0.713286,0.676647,1.457259,0.949267,0.463961,0.205853,0.118258
1605183911.568716,91.000000,0.000000,4124.358887,4187.436035,4149.615234,4108.974121,4091.153809,4123.333496,4109.743652,4159.743652,4155.897461,4107.436035,4032.692383,4143.974121,4196.922852,4174.102539,2058.000000,3.000000,,,,0.000000,4.000000,4.000000,4.000000,4.000000,4.000000,4.000000,4.000000,4.000000,4.000000,4.000000,4.000000,4.000000,4.000000,4.000000,100.000000,,,,,,,,,,,,,,,,,,,,,,,,,,,,,,,,,,,,,,,,,,,,,,,,,,,,,,,,,,,,,,,,,,,,,,
1605183911.576606,92.000000,0.000000,4117.563965,4175.769043,4143.974121,4105.256348,4112.179688,4125.897461,4106.922852,4157.563965,4153.974121,4089.102539,4023.846191,4147.051270,4196.410156,4169.615234,4134.000000,3.000000,,,,0.000000,4.000000,4.000000,4.000000,4.000000,4.000000,4.000000,4.000000,4.000000,4.000000,4.000000,4.000000,4.000000,4.000000,4.000000,100.000000,,,,,,,,,,,,,,,,,,,,,,,,,,,,,,,,,,,,,,,,,,,,,,,,,,,,,,,,,,,,,,,,,,,,,,
1605183911.584595,93.000000,0.000000,4119.615234,4178.717773,4146.025879,4128.846191,4111.282227,4126.282227,4109.230957,4158.205078,4156.410156,4109.230957,4031.923096,4149.871582,4194.743652,4172.948730,1906.000000,3.000000,,,,0.000000,4.000000,4.000000,4.000000,4.000000,4.000000,4.000000,4.000000,4.000000,4.000000,4.000000,4.000000,4.000000,4.000000,4.000000,100.000000,,,,,,,,,,,,,,,,,,,,,,,,,,,,,,,,,,,,,,,,,,,,,,,,,,,,,,,,,,,,,,,,,,,,,,
1605183911.592484,94.000000,0.000000,4120.769043,4177.436035,4148.846191,4110.769043,4099.487305,4122.307617,4112.051270,4160.512695,4156.410156,4121.282227,4030.512939,4148.846191,4196.538574,4174.743652,2544.000000,3.000000,,,,0.000000,4.000000,4.000000,4.000000,4.000000,4.000000,4.000000,4.000000,4.000000,4.000000,4.000000,4.000000,4.000000,4.000000,4.000000,100.000000,,,,,,,,,,,,,,,,,,,,,,,,,,,,,,,,,,,,,,,,,,,,,,,,,,,,,,,,,,,,,,,,,,,,,,
1605183911.600472,95.000000,0.000000,4117.820313,4174.487305,4151.794922,4091.666748,4106.794922,4121.410156,4113.205078,4160.769043,4155.897461,4120.512695,4026.410156,4147.948730,4191.282227,4174.743652,2058.000000,3.000000,,,,0.000000,4.000000,4.000000,4.000000,4.000000,4.000000,4.000000,4.000000,4.000000,4.000000,4.000000,4.000000,4.000000,4.000000,4.000000,100.000000,,,,,,,,,,,,,,,,,,,,,,,,,,,,,,,,,,,,,,,,,,,,,,,,,,,,,,,,,,,,,,,,,,,,,,
1605183911.608361,96.000000,0.000000,4111.666504,4176.153809,4142.563965,4112.563965,4097.820313,4112.179688,4106.282227,4154.871582,4149.102539,4112.051270,4005.000000,4145.897461,4171.922852,4170.512695,4134.000000,3.000000,,,,0.000000,4.000000,4.000000,4.000000,4.000000,4.000000,4.000000,4.000000,4.000000,4.000000,4.000000,4.000000,4.000000,4.000000,4.000000,100.000000,,,,,,,,,,,,,,,,,,,,,,,,,,,,,,,,,,,,,,,,,,,,,,,,,,,,,,,,,,,,,,,,,,,,,,
1605183911.616350,97.000000,0.000000,4114.615234,4184.615234,4136.666504,4127.179688,4088.076904,4110.512695,4105.769043,4155.641113,4149.230957,4095.897461,4002.564209,4147.563965,4173.974121,4171.794922,1906.000000,3.000000,,,,0.000000,4.000000,4.000000,4.000000,4.000000,4.000000,4.000000,4.000000,4.000000,4.000000,4.000000,4.000000,4.000000,4.000000,4.000000,100.000000,,,,,,,,,,,,,,,,,,,,,,,,,,,,,,,,,,,,,,,,,,,,,,,,,,,,,,,,,,,,,,,,,,,,,,
1605183911.624239,98.000000,0.000000,4111.410156,4181.794922,4140.256348,4125.000000,4083.718018,4108.589844,4102.948730,4157.692383,4149.487305,4086.281982,4011.281982,4147.692383,4184.871582,4171.794922,2544.000000,3.000000,,,,0.000000,4.000000,4.000000,4.000000,4.000000,4.000000,4.000000,4.000000,4.000000,4.000000,4.000000,4.000000,4.000000,4.000000,4.000000,100.000000,,,,,,,,,,,,,,,,,,,,,,,,,,,,,,,,,,,,,,,,,,,,,,,,,,,,,,,,,,,,,,,,,,,,,,
1605183911.632227,99.000000,0.000000,4107.820313,4178.333496,4140.384766,4124.102539,4083.076904,4108.205078,4101.282227,4158.077148,4152.051270,4104.615234,4010.128174,4144.487305,4184.230957,4171.153809,2058.000000,3.000000,,,,0.000000,4.000000,4.000000,4.000000,4.000000,4.000000,4.000000,4.000000,4.000000,4.000000,4.000000,4.000000,4.000000,4.000000,4.000000,100.000000,,,,,,,,,,,,,,,,,,,,,,,,,,,,,,,,,,,,,,,,,,,,,,,,,,,,,,,,,,,,,,,,,,,,,,
1605183911.640116,100.000000,0.000000,4108.717773,4175.897461,4131.538574,4100.897461,4089.615479,4113.333496,4106.153809,4157.051270,4153.461426,4115.769043,4000.512939,4141.794922,4175.256348,4170.769043,4134.000000,3.000000,,,,0.000000,4.000000,4.000000,4.000000,4.000000,4.000000,4.000000,4.000000,4.000000,4.000000,4.000000,4.000000,4.000000,4.000000,4.000000,100.000000,,,,,,,,,,,,,,,,,,,,,,,,,,,,,,,,,,,,,,,,,,,,,,,,,,,,,,,,,,,,,,,,,,,,,,
1605183911.648104,101.000000,0.000000,4113.846191,4173.333496,4143.461426,4091.410156,4102.692383,4126.666504,4118.589844,4160.641113,4157.948730,4105.000000,4009.615479,4148.077148,4180.897461,4176.025879,1906.000000,3.000000,,,,0.000000,4.000000,4.000000,4.000000,4.000000,4.000000,4.000000,4.000000,4.000000,4.000000,4.000000,4.000000,4.000000,4.000000,4.000000,100.000000,,,,,,,,,,,,,,,,,,,,,,,,,,,,,,,,,,,,,,,,,,,,,,,,,,,,,,,,,,,,,,,,,,,,,,
1605183911.655993,102.000000,0.000000,4111.410156,4168.077148,4148.846191,4108.846191,4097.820313,4128.205078,4118.205078,4162.051270,4158.077148,4103.333496,4020.384521,4148.461426,4182.563965,4176.666504,2544.000000,3.000000,,,,0.000000,4.000000,4.000000,4.000000,4.000000,4.000000,4.000000,4.000000,4.000000,4.000000,4.000000,4.000000,4.000000,4.000000,4.000000,100.000000,,,,,,,,,,,,,,,,,,,,,,,,,,,,,,,,,,,,,,,,,,,,,,,,,,,,,,,,,,,,,,,,,,,,,,
1605183911.663981,103.000000,0.000000,4103.974121,4168.846191,4132.307617,4113.077148,4096.794922,4122.051270,4111.794922,4160.769043,4155.512695,4115.128418,4004.358887,4143.205078,4169.230957,4171.025879,2058.000000,3.000000,,,,0.000000,4.000000,4.000000,4.000000,4.000000,4.000000,4.000000,4.000000,4.000000,4.000000,4.000000,4.000000,4.000000,4.000000,4.000000,100.000000,,,,,,,,,,,,,,,,,,,,,,,,,,,,,,,,,,,,,,,,,,,,,,,,,,,,,,,,,,,,,,,,,,,,,,
1605183911.671869,104.000000,0.000000,4099.102539,4168.846191,4126.153809,4097.820313,4101.538574,4114.743652,4108.846191,4155.897461,4150.384766,4098.461426,3981.666748,4140.256348,4158.717773,4166.025879,4134.000000,3.000000,,,,0.000000,4.000000,4.000000,4.000000,4.000000,4.000000,4.000000,4.000000,4.000000,4.000000,4.000000,4.000000,4.000000,4.000000,4.000000,100.000000,,,,,,,,,,,,,,,,,,,,,,,,,,,,,,,,,,,,,,,,,,,,,,,,,,,,,,,,,,,,,,,,,,,,,,
1605183911.679657,105.000000,0.000000,4103.077148,4169.615234,4137.051270,4102.820313,4092.948730,4114.358887,4111.538574,4156.410156,4152.692383,4083.205078,3989.487061,4143.461426,4165.000000,4170.897461,1906.000000,3.000000,,,,0.000000,4.000000,4.000000,4.000000,4.000000,4.000000,4.000000,4.000000,4.000000,4.000000,4.000000,4.000000,4.000000,4.000000,4.000000,100.000000,,,,,,,,,,,,,,,,,,,,,,,,,,,,,,,,,,,,,,,,,,,,,,,,,,,,,,,,,,,,,,,,,,,,,,
1605183911.687545,106.000000,0.000000,4105.256348,4173.205078,4139.487305,4121.794922,4087.051270,4119.358887,4112.948730,4160.000000,4156.282227,4106.794922,4012.179443,4144.615234,4171.025879,4174.871582,2544.000000,3.000000,,,,0.000000,4.000000,4.000000,4.000000,4.000000,4.000000,4.000000,4.000000,4.000000,4.000000,4.000000,4.000000,4.000000,4.000000,4.000000,100.000000,1.913340,1.389081,0.983244,0.327447,0.236832,1.862457,1.378233,0.648125,0.582904,0.501254,1.217859,0.959304,0.840301,0.245023,0.232318,1.800976,0.666241,1.385622,2.619872,2.297240,1.340832,1.044040,0.768782,1.252396,1.042600,0.878248,0.751353,0.327370,0.312174,0.173827,1.244955,0.681328,0.446478,0.223122,0.114271,0.374176,0.414508,0.234283,0.090467,0.056407,0.326874,0.778693,0.351162,0.181006,0.126947,1.350564,2.666074,1.511095,4.646559,2.460686,11.710725,11.961501,4.814251,1.920495,1.618595,0.302062,0.216236,0.110322,0.103963,0.062903,1.916244,2.357368,1.708478,0.659580,0.638382,1.418447,0.862701,0.460934,0.209827,0.120855
1605183911.695334,107.000000,0.000000,4098.461426,4173.974121,4137.820313,4116.410156,4092.051270,4119.743652,4112.563965,4160.256348,4155.128418,4128.974121,4011.025635,4144.615234,4166.538574,4173.846191,2058.000000,3.000000,,,,0.000000,4.000000,4.000000,4.000000,4.000000,4.000000,4.000000,4.000000,4.000000,4.000000,4.000000,4.000000,4.000000,4.000000,4.000000,100.000000,,,,,,,,,,,,,,,,,,,,,,,,,,,,,,,,,,,,,,,,,,,,,,,,,,,,,,,,,,,,,,,,,,,,,,
1605183911.703222,108.000000,0.000000,4098.846191,4168.589844,4143.461426,4092.051270,4097.563965,4118.461426,4115.512695,4160.000000,4155.000000,4121.282227,4008.589844,4144.615234,4167.436035,4176.922852,4134.000000,3.000000,,,,0.000000,4.000000,4.000000,4.000000,4.000000,4.000000,4.000000,4.000000,4.000000,4.000000,4.000000,4.000000,4.000000,4.000000,4.000000,100.000000,,,,,,,,,,,,,,,,,,,,,,,,,,,,,,,,,,,,,,,,,,,,,,,,,,,,,,,,,,,,,,,,,,,,,,
1605183911.711010,109.000000,0.000000,4109.615234,4168.974121,4148.205078,4105.256348,4104.102539,4124.871582,4119.871582,4161.025879,4155.512695,4114.230957,4023.333252,4145.512695,4173.974121,4179.871582,1906.000000,3.000000,,,,0.000000,4.000000,4.000000,4.000000,4.000000,4.000000,4.000000,4.000000,4.000000,4.000000,4.000000,4.000000,4.000000,4.000000,4.000000,100.000000,,,,,,,,,,,,,,,,,,,,,,,,,,,,,,,,,,,,,,,,,,,,,,,,,,,,,,,,,,,,,,,,,,,,,,
1605183911.718897,110.000000,0.000000,4109.743652,4171.922852,4146.282227,4131.794922,4104.102539,4122.692383,4117.820313,4158.589844,4150.769043,4105.384766,4024.871826,4144.487305,4166.794922,4172.948730,2544.000000,3.000000,,,,0.000000,4.000000,4.000000,4.000000,4.000000,4.000000,4.000000,4.000000,4.000000,4.000000,4.000000,4.000000,4.000000,4.000000,4.000000,100.000000,,,,,,,,,,,,,,,,,,,,,,,,,,,,,,,,,,,,,,,,,,,,,,,,,,,,,,,,,,,,,,,,,,,,,,
1605183911.726685,111.000000,0.000000,4097.692383,4163.589844,4138.461426,4110.000000,4083.974365,4106.153809,4110.641113,4155.384766,4145.000000,4072.948730,3995.512939,4142.436035,4148.717773,4166.794922,2058.000000,3.000000,,,,0.000000,4.000000,4.000000,4.000000,4.000000,4.000000,4.000000,4.000000,4.000000,4.000000,4.000000,4.000000,4.000000,4.000000,4.000000,100.000000,,,,,,,,,,,,,,,,,,,,,,,,,,,,,,,,,,,,,,,,,,,,,,,,,,,,,,,,,,,,,,,,,,,,,,
1605183911.734573,112.000000,0.000000,4098.974121,4162.179688,4138.589844,4095.256348,4074.230713,4105.641113,4111.025879,4156.922852,4149.487305,4071.923096,3994.358887,4142.692383,4150.384766,4170.256348,4134.000000,3.000000,,,,0.000000,4.000000,4.000000,4.000000,4.000000,4.000000,4.000000,4.000000,4.000000,4.000000,4.000000,4.000000,4.000000,4.000000,4.000000,100.000000,,,,,,,,,,,,,,,,,,,,,,,,,,,,,,,,,,,,,,,,,,,,,,,,,,,,,,,,,,,,,,,,,,,,,,
1605183911.742360,113.000000,0.000000,4103.077148,4165.256348,4140.512695,4114.102539,4093.076904,4115.512695,4111.794922,4156.025879,4155.512695,4112.051270,4009.487061,4141.282227,4156.666504,4170.641113,1906.000000,3.000000,,,,0.000000,4.000000,4.000000,4.000000,4.000000,4.000000,4.000000,4.000000,4.000000,4.000000,4.000000,4.000000,4.000000,4.000000,4.000000,100.000000,,,,,,,,,,,,,,,,,,,,,,,,,,,,,,,,,,,,,,,,,,,,,,,,,,,,,,,,,,,,,,,,,,,,,,
1605183911.750248,114.000000,0.000000,4107.820313,4171.794922,4143.333496,4124.230957,4112.563965,4122.307617,4115.769043,4158.717773,4159.487305,4144.615234,4021.410156,4143.205078,4154.871582,4172.563965,2544.000000,3.000000,,,,0.000000,4.000000,4.000000,4.000000,4.000000,4.000000,4.000000,4.000000,4.000000,4.000000,4.000000,4.000000,4.000000,4.000000,4.000000,100.000000,,,,,,,,,,,,,,,,,,,,,,,,,,,,,,,,,,,,,,,,,,,,,,,,,,,,,,,,,,,,,,,,,,,,,,
1605183911.758035,115.000000,0.000000,4111.410156,4178.974121,4145.769043,4114.487305,4105.897461,4122.307617,4119.743652,4162.820313,4157.307617,4128.333496,4025.384521,4145.769043,4150.897461,4173.974121,2058.000000,3.000000,,,,0.000000,4.000000,4.000000,4.000000,4.000000,4.000000,4.000000,4.000000,4.000000,4.000000,4.000000,4.000000,4.000000,4.000000,4.000000,100.000000,,,,,,,,,,,,,,,,,,,,,,,,,,,,,,,,,,,,,,,,,,,,,,,,,,,,,,,,,,,,,,,,,,,,,,
1605183911.765923,116.000000,0.000000,4117.563965,4187.692383,4151.538574,4116.025879,4114.487305,4129.871582,4127.948730,4166.538574,4161.922852,4102.692383,4039.230713,4146.410156,4155.641113,4176.410156,4134.000000,3.000000,,,,0.000000,4.000000,4.000000,4.000000,4.000000,4.000000,4.000000,4.000000,4.000000,4.000000,4.000000,4.000000,4.000000,4.000000,4.000000,100.000000,,,,,,,,,,,,,,,,,,,,,,,,,,,,,,,,,,,,,,,,,,,,,,,,,,,,,,,,,,,,,,,,,,,,,,
1605183911.773710,117.000000,0.000000,4117.436035,4183.461426,4150.000000,4117.692383,4121.282227,4130.897461,4127.051270,4165.000000,4161.153809,4100.256348,4044.358887,4142.563965,4155.256348,4177.051270,1906.000000,3.000000,,,,0.000000,4.000000,4.000000,4.000000,4.000000,4.000000,4.000000,4.000000,4.000000,4.000000,4.000000,4.000000,4.000000,4.000000,4.000000,100.000000,,,,,,,,,,,,,,,,,,,,,,,,,,,,,,,,,,,,,,,,,,,,,,,,,,,,,,,,,,,,,,,,,,,,,,
1605183911.781597,118.000000,0.000000,4118.077148,4180.000000,4147.692383,4114.615234,4114.871582,4132.820313,4128.077148,4165.384766,4160.512695,4112.563965,4053.718018,4143.077148,4160.641113,4182.692383,2544.000000,3.000000,,,,0.000000,4.000000,4.000000,4.000000,4.000000,4.000000,4.000000,4.000000,4.000000,4.000000,4.000000,4.000000,4.000000,4.000000,4.000000,100.000000,,,,,,,,,,,,,,,,,,,,,,,,,,,,,,,,,,,,,,,,,,,,,,,,,,,,,,,,,,,,,,,,,,,,,,
1605183911.789487,119.000000,0.000000,4120.769043,4183.077148,4149.615234,4113.077148,4110.256348,4138.077148,4135.641113,4168.974121,4165.641113,4132.948730,4071.025635,4147.692383,4166.922852,4187.820313,2058.000000,3.000000,,,,0.000000,4.000000,4.000000,4.000000,4.000000,4.000000,4.000000,4.000000,4.000000,4.000000,4.000000,4.000000,4.000000,4.000000,4.000000,100.000000,,,,,,,,,,,,,,,,,,,,,,,,,,,,,,,,,,,,,,,,,,,,,,,,,,,,,,,,,,,,,,,,,,,,,,
1605183911.797377,120.000000,0.000000,4132.307617,4193.205078,4161.282227,4130.769043,4127.692383,4150.000000,4147.051270,4175.512695,4171.794922,4159.743652,4095.384521,4153.205078,4172.563965,4190.641113,4134.000000,3.000000,,,,0.000000,4.000000,4.000000,4.000000,4.000000,4.000000,4.000000,4.000000,4.000000,4.000000,4.000000,4.000000,4.000000,4.000000,4.000000,100.000000,,,,,,,,,,,,,,,,,,,,,,,,,,,,,,,,,,,,,,,,,,,,,,,,,,,,,,,,,,,,,,,,,,,,,,
1605183911.805367,121.000000,0.000000,4135.641113,4195.897461,4163.461426,4140.000000,4138.974121,4154.871582,4148.333496,4174.871582,4167.436035,4151.282227,4108.974121,4149.102539,4173.205078,4186.153809,1906.000000,3.000000,,,,0.000000,4.000000,4.000000,4.000000,4.000000,4.000000,4.000000,4.000000,4.000000,4.000000,4.000000,4.000000,4.000000,4.000000,4.000000,100.000000,,,,,,,,,,,,,,,,,,,,,,,,,,,,,,,,,,,,,,,,,,,,,,,,,,,,,,,,,,,,,,,,,,,,,,
1605183911.813257,122.000000,0.000000,4127.307617,4190.641113,4152.051270,4126.794922,4133.333496,4149.230957,4142.051270,4171.922852,4161.922852,4129.102539,4095.000000,4141.794922,4162.948730,4178.077148,2544.000000,3.000000,,,,0.000000,4.000000,4.000000,4.000000,4.000000,4.000000,4.000000,4.000000,4.000000,4.000000,4.000000,4.000000,4.000000,4.000000,4.000000,100.000000,1.847421,1.280229,0.947593,0.311915,0.221561,1.679854,1.154318,0.612684,0.471505,0.452182,1.184506,0.893522,0.702223,0.243875,0.220877,1.848027,0.638617,1.213075,2.647954,2.131157,1.584198,0.979164,0.869482,1.250170,1.031698,1.115500,0.666342,0.284004,0.341706,0.176344,1.380845,0.698444,0.422373,0.237150,0.112012,0.333023,0.417191,0.223604,0.095295,0.059698,0.335043,0.713937,0.308343,0.178489,0.129881,1.486693,2.584875,1.392795,4.493887,2.250993,11.960648,10.708665,4.623705,1.880513,1.607531,0.297461,0.188895,0.103006,0.111233,0.069753,1.799054,2.050884,1.759951,0.597082,0.586342,1.275778,0.733112,0.444193,0.204358,0.124607
1605183911.821146,123.000000,0.000000,4127.820313,4192.436035,4151.538574,4129.102539,4134.230957,4147.307617,4140.000000,4171.153809,4161.666504,4145.000000,4082.692383,4142.820313,4153.461426,4174.487305,2058.000000,3.000000,,,,0.000000,4.000000,4.000000,4.000000,4.000000,4.000000,4.000000,4.000000,4.000000,4.000000,4.000000,4.000000,4.000000,4.000000,4.000000,100.000000,,,,,,,,,,,,,,,,,,,,,,,,,,,,,,,,,,,,,,,,,,,,,,,,,,,,,,,,,,,,,,,,,,,,,,
1605183911.828935,124.000000,0.000000,4142.051270,4206.794922,4166.025879,4153.846191,4139.487305,4157.307617,4148.974121,4173.589844,4166.153809,4162.179688,4103.846191,4148.205078,4161.666504,4180.641113,4134.000000,3.000000,,,,0.000000,4.000000,4.000000,4.000000,4.000000,4.000000,4.000000,4.000000,4.000000,4.000000,4.000000,4.000000,4.000000,4.000000,4.000000,100.000000,,,,,,,,,,,,,,,,,,,,,,,,,,,,,,,,,,,,,,,,,,,,,,,,,,,,,,,,,,,,,,,,,,,,,,
1605183911.836823,125.000000,0.000000,4142.563965,4211.410156,4165.641113,4149.871582,4142.563965,4166.282227,4157.948730,4177.051270,4167.948730,4149.358887,4127.692383,4144.615234,4168.846191,4184.230957,1906.000000,3.000000,,,,0.000000,4.000000,4.000000,4.000000,4.000000,4.000000,4.000000,4.000000,4.000000,4.000000,4.000000,4.000000,4.000000,4.000000,4.000000,100.000000,,,,,,,,,,,,,,,,,,,,,,,,,,,,,,,,,,,,,,,,,,,,,,,,,,,,,,,,,,,,,,,,,,,,,,
1605183911.844711,126.000000,0.000000,4130.256348,4202.563965,4154.743652,4130.769043,4153.205078,4164.487305,4156.282227,4178.974121,4167.179688,4140.641113,4121.666504,4141.025879,4161.666504,4179.743652,2544.000000,3.000000,,,,0.000000,4.000000,4.000000,4.000000,4.000000,4.000000,4.000000,4.000000,4.000000,4.000000,4.000000,4.000000,4.000000,4.000000,4.000000,100.000000,,,,,,,,,,,,,,,,,,,,,,,,,,,,,,,,,,,,,,,,,,,,,,,,,,,,,,,,,,,,,,,,,,,,,,
1605183911.852701,127.000000,0.000000,4136.538574,4208.077148,4161.794922,4143.205078,4154.615234,4159.102539,4153.077148,4179.743652,4169.743652,4125.000000,4129.871582,4147.179688,4162.307617,4182.051270,52.000000,3.000000,,,,0.000000,4.000000,4.000000,4.000000,4.000000,4.000000,4.000000,4.000000,4.000000,4.000000,4.000000,4.000000,4.000000,4.000000,4.000000,100.000000,,,,,,,,,,,,,,,,,,,,,,,,,,,,,,,,,,,,,,,,,,,,,,,,,,,,,,,,,,,,,,,,,,,,,,
1605183911.860590,0.000000,0.000000,4152.179688,4217.179688,4171.794922,4154.230957,4134.102539,4157.563965,4153.974121,4180.000000,4170.641113,4123.974121,4147.179688,4152.563965,4168.205078,4188.333496,2481.000000,3.000000,,,,0.000000,4.000000,4.000000,4.000000,4.000000,4.000000,4.000000,4.000000,4.000000,4.000000,4.000000,4.000000,4.000000,4.000000,4.000000,100.000000,,,,,,,,,,,,,,,,,,,,,,,,,,,,,,,,,,,,,,,,,,,,,,,,,,,,,,,,,,,,,,,,,,,,,,
1605183911.868579,1.000000,0.000000,4153.974121,4210.128418,4166.153809,4141.922852,4138.333496,4163.077148,4155.256348,4181.025879,4170.384766,4174.230957,4148.846191,4150.256348,4164.743652,4186.282227,2879.000000,3.000000,,,,0.000000,4.000000,4.000000,4.000000,4.000000,4.000000,4.000000,4.000000,4.000000,4.000000,4.000000,4.000000,4.000000,4.000000,4.000000,100.000000,,,,,,,,,,,,,,,,,,,,,,,,,,,,,,,,,,,,,,,,,,,,,,,,,,,,,,,,,,,,,,,,,,,,,,
1605183911.876468,2.000000,0.000000,4145.384766,4201.282227,4157.692383,4134.487305,4168.333496,4164.615234,4153.846191,4179.743652,4172.179688,4200.512695,4141.794922,4148.846191,4154.487305,4182.436035,2656.000000,3.000000,,,,0.000000,4.000000,4.000000,4.000000,4.000000,4.000000,4.000000,4.000000,4.000000,4.000000,4.000000,4.000000,4.000000,4.000000,4.000000,100.000000,,,,,,,,,,,,,,,,,,,,,,,,,,,,,,,,,,,,,,,,,,,,,,,,,,,,,,,,,,,,,,,,,,,,,,
1605183911.884457,3.000000,0.000000,4150.641113,4214.615234,4161.025879,4154.615234,4162.692383,4162.948730,4153.205078,4180.897461,4174.102539,4173.717773,4154.615234,4152.179688,4154.487305,4186.538574,2898.000000,3.000000,,,,0.000000,4.000000,4.000000,4.000000,4.000000,4.000000,4.000000,4.000000,4.000000,4.000000,4.000000,4.000000,4.000000,4.000000,4.000000,100.000000,,,,,,,,,,,,,,,,,,,,,,,,,,,,,,,,,,,,,,,,,,,,,,,,,,,,,,,,,,,,,,,,,,,,,,
1605183911.892346,4.000000,0.000000,4152.692383,4217.948730,4161.282227,4160.256348,4139.102539,4158.846191,4147.051270,4178.589844,4166.538574,4135.897461,4159.743652,4152.179688,4153.717773,4186.410156,2938.000000,3.000000,,,,0.000000,4.000000,4.000000,4.000000,4.000000,4.000000,4.000000,4.000000,4.000000,4.000000,4.000000,4.000000,4.000000,4.000000,4.000000,100.000000,,,,,,,,,,,,,,,,,,,,,,,,,,,,,,,,,,,,,,,,,,,,,,,,,,,,,,,,,,,,,,,,,,,,,,
1605183911.900335,5.000000,0.000000,4153.077148,4217.820313,4163.589844,4159.358887,4148.333496,4165.000000,4150.769043,4176.410156,4166.922852,4129.487305,4155.641113,4150.128418,4147.948730,4185.256348,2943.000000,3.000000,,,,0.000000,4.000000,4.000000,4.000000,4.000000,4.000000,4.000000,4.000000,4.000000,4.000000,4.000000,4.000000,4.000000,4.000000,4.000000,100.000000,,,,,,,,,,,,,,,,,,,,,,,,,,,,,,,,,,,,,,,,,,,,,,,,,,,,,,,,,,,,,,,,,,,,,,
1605183911.908224,6.000000,0.000000,4150.000000,4219.230957,4158.846191,4157.820313,4135.128418,4161.410156,4150.897461,4175.000000,4167.563965,4140.000000,4130.256348,4144.743652,4129.102539,4176.410156,2718.000000,3.000000,,,,0.000000,4.000000,4.000000,4.000000,4.000000,4.000000,4.000000,4.000000,4.000000,4.000000,4.000000,4.000000,4.000000,4.000000,4.000000,100.000000,,,,,,,,,,,,,,,,,,,,,,,,,,,,,,,,,,,,,,,,,,,,,,,,,,,,,,,,,,,,,,,,,,,,,,
1605183911.916213,7.000000,0.000000,4146.922852,4213.846191,4152.820313,4137.820313,4123.461426,4158.589844,4151.410156,4177.948730,4167.436035,4156.410156,4113.333496,4145.641113,4119.615234,4170.769043,2111.000000,3.000000,,,,0.000000,4.000000,4.000000,4.000000,4.000000,4.000000,4.000000,4.000000,4.000000,4.000000,4.000000,4.000000,4.000000,4.000000,4.000000,100.000000,,,,,,,,,,,,,,,,,,,,,,,,,,,,,,,,,,,,,,,,,,,,,,,,,,,,,,,,,,,,,,,,,,,,,,
1605183911.924102,8.000000,0.000000,4147.307617,4207.692383,4158.846191,4121.666504,4145.641113,4164.487305,4155.769043,4179.615234,4166.410156,4158.461426,4126.794922,4150.897461,4124.871582,4176.410156,2782.000000,3.000000,,,,0.000000,4.000000,4.000000,4.000000,4.000000,4.000000,4.000000,4.000000,4.000000,4.000000,4.000000,4.000000,4.000000,4.000000,4.000000,100.000000,,,,,,,,,,,,,,,,,,,,,,,,,,,,,,,,,,,,,,,,,,,,,,,,,,,,,,,,,,,,,,,,,,,,,,
1605183911.932090,9.000000,0.000000,4151.538574,4214.358887,4167.692383,4140.256348,4147.563965,4170.641113,4162.051270,4181.153809,4169.358887,4148.333496,4143.717773,4148.717773,4122.179688,4181.025879,2782.000000,3.000000,,,,0.000000,4.000000,4.000000,4.000000,4.000000,4.000000,4.000000,4.000000,4.000000,4.000000,4.000000,4.000000,4.000000,4.000000,4.000000,100.000000,,,,,,,,,,,,,,,,,,,,,,,,,,,,,,,,,,,,,,,,,,,,,,,,,,,,,,,,,,,,,,,,,,,,,,
1605183911.939979,10.000000,0.000000,4145.769043,4211.153809,4158.077148,4152.051270,4120.000000,4161.538574,4155.769043,4179.487305,4165.128418,4128.589844,4127.948730,4139.871582,4103.717773,4173.333496,2564.000000,3.000000,,,,0.000000,4.000000,4.000000,4.000000,4.000000,4.000000,4.000000,4.000000,4.000000,4.000000,4.000000,4.000000,4.000000,4.000000,4.000000,100.000000,1.670464,1.193583,0.892056,0.286845,0.215988,1.494455,1.002525,0.570612,0.409798,0.407397,1.029153,0.818878,0.574083,0.244637,0.229971,1.769942,0.668130,1.093137,2.685894,1.961583,1.748916,1.004896,0.975157,1.216050,1.022144,1.279999,0.614647,0.263926,0.349674,0.175128,1.421573,0.721398,0.393561,0.239416,0.107857,0.292604,0.417132,0.206653,0.097682,0.064358,0.328344,0.660648,0.261363,0.169455,0.137376,1.471666,2.438761,1.254664,4.291633,2.078878,11.105913,9.331254,4.320369,1.802004,1.626364,0.262451,0.166920,0.098625,0.114360,0.079502,1.495997,1.715594,1.697134,0.531495,0.529304,1.043296,0.597291,0.414651,0.190053,0.126729
1605183911.947967,11.000000,0.000000,4153.846191,4217.436035,4162.692383,4154.487305,4134.743652,4164.871582,4158.589844,4183.974121,4169.102539,4132.563965,4135.128418,4148.461426,4105.384766,4178.846191,2081.000000,3.000000,,,,0.000000,4.000000,4.000000,4.000000,4.000000,4.000000,4.000000,4.000000,4.000000,4.000000,4.000000,4.000000,4.000000,4.000000,4.000000,100.000000,,,,,,,,,,,,,,,,,,,,,,,,,,,,,,,,,,,,,,,,,,,,,,,,,,,,,,,,,,,,,,,,,,,,,,
1605183911.955856,12.000000,0.000000,4167.563965,4226.153809,4174.487305,4157.563965,4158.589844,4173.589844,4164.871582,4186.410156,4176.922852,4169.615234,4165.512695,4156.922852,4111.666504,4185.641113,4151.000000,3.000000,,,,0.000000,4.000000,4.000000,4.000000,4.000000,4.000000,4.000000,4.000000,4.000000,4.000000,4.000000,4.000000,4.000000,4.000000,4.000000,100.000000,,,,,,,,,,,,,,,,,,,,,,,,,,,,,,,,,,,,,,,,,,,,,,,,,,,,,,,,,,,,,,,,,,,,,,
1605183911.963844,13.000000,0.000000,4168.077148,4221.794922,4170.128418,4157.563965,4156.282227,4173.077148,4163.846191,4183.846191,4176.794922,4176.153809,4169.615234,4155.000000,4102.179688,4181.922852,1926.000000,3.000000,,,,0.000000,4.000000,4.000000,4.000000,4.000000,4.000000,4.000000,4.000000,4.000000,4.000000,4.000000,4.000000,4.000000,4.000000,4.000000,100.000000,,,,,,,,,,,,,,,,,,,,,,,,,,,,,,,,,,,,,,,,,,,,,,,,,,,,,,,,,,,,,,,,,,,,,,
1605183911.971732,14.000000,0.000000,4162.948730,4222.436035,4165.000000,4160.769043,4149.230957,4168.717773,4160.512695,4179.487305,4170.769043,4139.743652,4155.897461,4150.641113,4091.410156,4177.563965,2564.000000,3.000000,,,,0.000000,4.000000,4.000000,4.000000,4.000000,4.000000,4.000000,4.000000,4.000000,4.000000,4.000000,4.000000,4.000000,4.000000,4.000000,100.000000,,,,,,,,,,,,,,,,,,,,,,,,,,,,,,,,,,,,,,,,,,,,,,,,,,,,,,,,,,,,,,,,,,,,,,
1605183911.979521,15.000000,0.000000,4165.769043,4231.153809,4170.000000,4168.205078,4140.000000,4164.615234,4156.153809,4178.846191,4170.000000,4131.538574,4143.461426,4147.436035,4086.794922,4175.000000,2081.000000,3.000000,,,,0.000000,4.000000,4.000000,4.000000,4.000000,4.000000,4.000000,4.000000,4.000000,4.000000,4.000000,4.000000,4.000000,4.000000,4.000000,100.000000,,,,,,,,,,,,,,,,,,,,,,,,,,,,,,,,,,,,,,,,,,,,,,,,,,,,,,,,,,,,,,,,,,,,,,
1605183911.987409,16.000000,0.000000,4167.692383,4225.128418,4168.205078,4149.358887,4138.333496,4161.538574,4151.922852,4180.512695,4174.358887,4152.179688,4139.615234,4144.871582,4081.153809,4171.922852,0.000000,3.000000,,,,0.000000,4.000000,4.000000,4.000000,4.000000,4.000000,4.000000,4.000000,4.000000,4.000000,4.000000,4.000000,4.000000,4.000000,4.000000,100.000000,,,,,,,,,,,,,,,,,,,,,,,,,,,,,,,,,,,,,,,,,,,,,,,,,,,,,,,,,,,,,,,,,,,,,,
1605183911.995197,17.000000,0.000000,4168.461426,4219.615234,4166.282227,4132.179688,4144.230957,4163.461426,4152.692383,4180.897461,4176.410156,4149.871582,4141.794922,4149.358887,4079.230713,4175.769043,0.000000,3.000000,,,,0.000000,4.000000,4.000000,4.000000,4.000000,4.000000,4.000000,4.000000,4.000000,4.000000,4.000000,4.000000,4.000000,4.000000,4.000000,100.000000,,,,,,,,,,,,,,,,,,,,,,,,,,,,,,,,,,,,,,,,,,,,,,,,,,,,,,,,,,,,,,,,,,,,,,
1605183912.003085,18.000000,0.000000,4173.589844,4224.615234,4171.538574,4148.461426,4141.410156,4161.794922,4150.769043,4178.333496,4168.717773,4135.128418,4142.179688,4150.769043,4076.281982,4176.538574,0.000000,3.000000,,,,0.000000,4.000000,4.000000,4.000000,4.000000,4.000000,4.000000,4.000000,4.000000,4.000000,4.000000,4.000000,4.000000,4.000000,4.000000,100.000000,,,,,,,,,,,,,,,,,,,,,,,,,,,,,,,,,,,,,,,,,,,,,,,,,,,,,,,,,,,,,,,,,,,,,,
1605183912.010873,19.000000,0.000000,4171.666504,4222.051270,4170.512695,4160.128418,4132.436035,4153.589844,4144.871582,4177.179688,4163.077148,4134.102539,4126.794922,4146.153809,4061.923096,4168.077148,0.000000,3.000000,,,,0.000000,4.000000,4.000000,4.000000,4.000000,4.000000,4.000000,4.000000,4.000000,4.000000,4.000000,4.000000,4.000000,4.000000,4.000000,100.000000,,,,,,,,,,,,,,,,,,,,,,,,,,,,,,,,,,,,,,,,,,,,,,,,,,,,,,,,,,,,,,,,,,,,,,
1605183912.018761,20.000000,0.000000,4164.358887,4224.102539,4166.538574,4164.615234,4120.256348,4152.307617,4145.128418,4178.077148,4167.179688,4126.666504,4117.563965,4145.769043,4049.615479,4165.000000,0.000000,3.000000,,,,0.000000,4.000000,4.000000,4.000000,4.000000,4.000000,4.000000,4.000000,4.000000,4.000000,4.000000,4.000000,4.000000,4.000000,4.000000,100.000000,,,,,,,,,,,,,,,,,,,,,,,,,,,,,,,,,,,,,,,,,,,,,,,,,,,,,,,,,,,,,,,,,,,,,,
1605183912.026549,21.000000,0.000000,4153.974121,4223.846191,4159.743652,4166.794922,4108.717773,4150.000000,4142.820313,4173.846191,4163.077148,4103.077148,4102.179688,4146.794922,4038.205078,4163.205078,0.000000,3.000000,,,,0.000000,4.000000,4.000000,4.000000,4.000000,4.000000,4.000000,4.000000,4.000000,4.000000,4.000000,4.000000,4.000000,4.000000,4.000000,100.000000,,,,,,,,,,,,,,,,,,,,,,,,,,,,,,,,,,,,,,,,,,,,,,,,,,,,,,,,,,,,,,,,,,,,,,
1605183912.034437,22.000000,0.000000,4153.461426,4213.846191,4156.282227,4151.153809,4122.436035,4150.641113,4140.128418,4172.051270,4160.512695,4113.461426,4096.282227,4147.436035,4039.358887,4162.563965,0.000000,3.000000,,,,0.000000,4.000000,4.000000,4.000000,4.000000,4.000000,4.000000,4.000000,4.000000,4.000000,4.000000,4.000000,4.000000,4.000000,4.000000,100.000000,,,,,,,,,,,,,,,,,,,,,,,,,,,,,,,,,,,,,,,,,,,,,,,,,,,,,,,,,,,,,,,,,,,,,,
1605183912.042225,23.000000,0.000000,4152.051270,4198.846191,4153.717773,4118.461426,4138.974121,4148.205078,4135.641113,4171.922852,4162.948730,4128.461426,4093.076904,4146.538574,4040.128174,4163.717773,0.000000,3.000000,,,,0.000000,4.000000,4.000000,4.000000,4.000000,4.000000,4.000000,4.000000,4.000000,4.000000,4.000000,4.000000,4.000000,4.000000,4.000000,100.000000,,,,,,,,,,,,,,,,,,,,,,,,,,,,,,,,,,,,,,,,,,,,,,,,,,,,,,,,,,,,,,,,,,,,,,
1605183912.050112,24.000000,0.000000,4154.871582,4202.948730,4157.051270,4124.487305,4132.179688,4144.487305,4134.487305,4173.333496,4165.512695,4130.384766,4094.743652,4147.436035,4036.794922,4166.153809,0.000000,3.000000,,,,0.000000,4.000000,4.000000,4.000000,4.000000,4.000000,4.000000,4.000000,4.000000,4.000000,4.000000,4.000000,4.000000,4.000000,4.000000,100.000000,,,,,,,,,,,,,,,,,,,,,,,,,,,,,,,,,,,,,,,,,,,,,,,,,,,,,,,,,,,,,,,,,,,,,,
1605183912.057900,25.000000,0.000000,4164.615234,4217.692383,4162.563965,4152.820313,4119.615234,4140.512695,4135.128418,4175.000000,4163.846191,4127.179688,4104.743652,4149.487305,4035.897461,4167.436035,0.000000,3.000000,,,,0.000000,4.000000,4.000000,4.000000,4.000000,4.000000,4.000000,4.000000,4.000000,4.000000,4.000000,4.000000,4.000000,4.000000,4.000000,100.000000,,,,,,,,,,,,,,,,,,,,,,,,,,,,,,,,,,,,,,,,,,,,,,,,,,,,,,,,,,,,,,,,,,,,,,
1605183912.065788,26.000000,0.000000,4174.615234,4226.410156,4165.897461,4155.128418,4130.897461,4146.794922,4139.487305,4176.538574,4166.025879,4112.563965,4122.307617,4150.384766,4040.641113,4171.666504,0.000000,3.000000,,,,0.000000,4.000000,4.000000,4.000000,4.000000,4.000000,4.000000,4.000000,4.000000,4.000000,4.000000,4.000000,4.000000,4.000000,4.000000,100.000000,1.418050,1.112061,0.790726,0.255722,0.215295,1.323630,0.938992,0.524088,0.380460,0.370138,0.829083,0.743655,0.462769,0.246472,0.251985,1.609958,0.725148,1.046230,2.628681,1.826961,1.813235,1.063816,1.048794,1.169719,1.001650,1.365588,0.593851,0.256785,0.338237,0.169055,1.398703,0.743410,0.355948,0.233562,0.102168,0.265550,0.409748,0.184114,0.096634,0.068300,0.328218,0.630623,0.215243,0.159215,0.143440,1.339753,2.229782,1.106787,4.111878,1.921127,9.602839,7.971266,3.860443,1.709116,1.651799,0.210827,0.151419,0.096252,0.112003,0.090626,1.201914,1.420337,1.498589,0.469902,0.476763,0.776681,0.477886,0.373855,0.171576,0.125058
1605183912.073575,27.000000,0.000000,4170.384766,4221.922852,4159.358887,4144.743652,4132.179688,4147.307617,4134.615234,4171.794922,4162.051270,4102.820313,4116.666504,4147.436035,4033.333252,4168.717773,0.000000,3.000000,,,,0.000000,4.000000,4.000000,4.000000,4.000000,4.000000,4.000000,4.000000,4.000000,4.000000,4.000000,4.000000,4.000000,4.000000,4.000000,100.000000,,,,,,,,,,,,,,,,,,,,,,,,,,,,,,,,,,,,,,,,,,,,,,,,,,,,,,,,,,,,,,,,,,,,,,
1605183912.081462,28.000000,0.000000,4166.025879,4222.820313,4158.205078,4156.794922,4120.641113,4145.641113,4137.563965,4171.666504,4165.256348,4130.641113,4110.000000,4147.051270,4025.897461,4164.871582,0.000000,3.000000,,,,0.000000,4.000000,4.000000,4.000000,4.000000,4.000000,4.000000,4.000000,4.000000,4.000000,4.000000,4.000000,4.000000,4.000000,4.000000,100.000000,,,,,,,,,,,,,,,,,,,,,,,,,,,,,,,,,,,,,,,,,,,,,,,,,,,,,,,,,,,,,,,,,,,,,,
1605183912.089250,29.000000,0.000000,4157.051270,4216.282227,4148.846191,4152.820313,4114.487305,4138.589844,4136.410156,4167.948730,4163.077148,4134.230957,4098.333496,4142.948730,4016.923096,4160.128418,0.000000,3.000000,,,,0.000000,4.000000,4.000000,4.000000,4.000000,4.000000,4.000000,4.000000,4.000000,4.000000,4.000000,4.000000,4.000000,4.000000,4.000000,100.000000,,,,,,,,,,,,,,,,,,,,,,,,,,,,,,,,,,,,,,,,,,,,,,,,,,,,,,,,,,,,,,,,,,,,,,
1605183912.097137,30.000000,0.000000,4150.000000,4200.897461,4136.538574,4125.000000,4118.974121,4130.128418,4124.615234,4163.461426,4154.102539,4102.820313,4073.974365,4139.743652,4007.051270,4156.538574,0.000000,3.000000,,,,0.000000,4.000000,4.000000,4.000000,4.000000,4.000000,4.000000,4.000000,4.000000,4.000000,4.000000,4.000000,4.000000,4.000000,4.000000,100.000000,,,,,,,,,,,,,,,,,,,,,,,,,,,,,,,,,,,,,,,,,,,,,,,,,,,,,,,,,,,,,,,,,,,,,,
1605183912.104924,31.000000,0.000000,4156.153809,4195.897461,4142.692383,4123.717773,4106.538574,4125.384766,4119.230957,4162.179688,4148.846191,4088.076904,4061.281982,4141.410156,4002.820557,4158.461426,0.000000,3.000000,,,,0.000000,4.000000,4.000000,4.000000,4.000000,4.000000,4.000000,4.000000,4.000000,4.000000,4.000000,4.000000,4.000000,4.000000,4.000000,100.000000,,,,,,,,,,,,,,,,,,,,,,,,,,,,,,,,,,,,,,,,,,,,,,,,,,,,,,,,,,,,,,,,,,,,,,
1605183912.112812,32.000000,0.000000,4169.487305,4207.692383,4154.487305,4155.897461,4104.743652,4126.794922,4124.102539,4161.666504,4148.461426,4080.256348,4068.589844,4145.128418,4002.948730,4166.282227,0.000000,3.000000,,,,0.000000,4.000000,4.000000,4.000000,4.000000,4.000000,4.000000,4.000000,4.000000,4.000000,4.000000,4.000000,4.000000,4.000000,4.000000,100.000000,,,,,,,,,,,,,,,,,,,,,,,,,,,,,,,,,,,,,,,,,,,,,,,,,,,,,,,,,,,,,,,,,,,,,,
1605183912.120599,33.000000,0.000000,4178.974121,4215.128418,4148.589844,4149.102539,4124.871582,4121.794922,4117.436035,4158.077148,4147.436035,4080.897461,4073.076904,4141.922852,4001.153809,4166.538574,0.000000,3.000000,,,,0.000000,4.000000,4.000000,4.000000,4.000000,4.000000,4.000000,4.000000,4.000000,4.000000,4.000000,4.000000,4.000000,4.000000,4.000000,100.000000,,,,,,,,,,,,,,,,,,,,,,,,,,,,,,,,,,,,,,,,,,,,,,,,,,,,,,,,,,,,,,,,,,,,,,
1605183912.128486,34.000000,0.000000,4189.487305,4210.897461,4145.384766,4119.102539,4118.205078,4112.436035,4105.256348,4155.384766,4146.025879,4105.897461,4068.333252,4142.436035,4000.769287,4167.179688,0.000000,3.000000,,,,0.000000,4.000000,4.000000,4.000000,4.000000,4.000000,4.000000,4.000000,4.000000,4.000000,4.000000,4.000000,4.000000,4.000000,4.000000,100.000000,,,,,,,,,,,,,,,,,,,,,,,,,,,,,,,,,,,,,,,,,,,,,,,,,,,,,,,,,,,,,,,,,,,,,,
1605183912.136273,35.000000,0.000000,4205.000000,4214.615234,4158.974121,4132.820313,4103.717773,4111.794922,4104.358887,4153.846191,4141.410156,4105.384766,4076.025635,4147.307617,4004.230713,4177.307617,0.000000,3.000000,,,,0.000000,4.000000,4.000000,4.000000,4.000000,4.000000,4.000000,4.000000,4.000000,4.000000,4.000000,4.000000,4.000000,4.000000,4.000000,100.000000,,,,,,,,,,,,,,,,,,,,,,,,,,,,,,,,,,,,,,,,,,,,,,,,,,,,,,,,,,,,,,,,,,,,,,
1605183912.144162,36.000000,0.000000,4216.025879,4220.000000,4164.743652,4140.897461,4104.743652,4112.051270,4106.410156,4153.461426,4142.307617,4080.512939,4083.205078,4148.333496,4008.846191,4181.410156,0.000000,3.000000,,,,0.000000,4.000000,4.000000,4.000000,4.000000,4.000000,4.000000,4.000000,4.000000,4.000000,4.000000,4.000000,4.000000,4.000000,4.000000,100.000000,,,,,,,,,,,,,,,,,,,,,,,,,,,,,,,,,,,,,,,,,,,,,,,,,,,,,,,,,,,,,,,,,,,,,,
1605183912.152050,37.000000,0.000000,4221.794922,4217.307617,4163.205078,4119.615234,4104.230957,4112.307617,4112.436035,4158.717773,4152.051270,4090.641113,4093.589844,4149.230957,4018.076904,4181.794922,0.000000,3.000000,,,,0.000000,4.000000,4.000000,4.000000,4.000000,4.000000,4.000000,4.000000,4.000000,4.000000,4.000000,4.000000,4.000000,4.000000,4.000000,100.000000,,,,,,,,,,,,,,,,,,,,,,,,,,,,,,,,,,,,,,,,,,,,,,,,,,,,,,,,,,,,,,,,,,,,,,
1605183912.159838,38.000000,0.000000,4222.948730,4214.102539,4166.538574,4124.487305,4101.794922,4113.461426,4115.512695,4162.307617,4152.179688,4111.794922,4108.333496,4150.256348,4025.641113,4188.077148,0.000000,3.000000,,,,0.000000,4.000000,4.000000,4.000000,4.000000,4.000000,4.000000,4.000000,4.000000,4.000000,4.000000,4.000000,4.000000,4.000000,4.000000,100.000000,,,,,,,,,,,,,,,,,,,,,,,,,,,,,,,,,,,,,,,,,,,,,,,,,,,,,,,,,,,,,,,,,,,,,,
1605183912.167827,39.000000,0.000000,4227.820313,4219.615234,4169.487305,4152.692383,4120.000000,4118.846191,4115.512695,4163.333496,4151.025879,4107.307617,4127.179688,4151.794922,4033.205078,4196.410156,0.000000,3.000000,,,,0.000000,4.000000,4.000000,4.000000,4.000000,4.000000,4.000000,4.000000,4.000000,4.000000,4.000000,4.000000,4.000000,4.000000,4.000000,100.000000,,,,,,,,,,,,,,,,,,,,,,,,,,,,,,,,,,,,,,,,,,,,,,,,,,,,,,,,,,,,,,,,,,,,,,
1605183912.175716,40.000000,0.000000,4231.410156,4219.358887,4163.974121,4156.794922,4119.615234,4114.487305,4115.000000,4162.563965,4153.333496,4085.128174,4128.717773,4151.666504,4035.641113,4198.846191,0.000000,3.000000,,,,0.000000,4.000000,4.000000,4.000000,4.000000,4.000000,4.000000,4.000000,4.000000,4.000000,4.000000,4.000000,4.000000,4.000000,4.000000,100.000000,,,,,,,,,,,,,,,,,,,,,,,,,,,,,,,,,,,,,,,,,,,,,,,,,,,,,,,,,,,,,,,,,,,,,,
1605183912.183705,41.000000,0.000000,4233.974121,4217.436035,4171.025879,4154.102539,4096.922852,4111.922852,4115.128418,4161.794922,4153.974121,4075.897461,4132.563965,4151.922852,4035.512939,4202.692383,0.000000,3.000000,,,,0.000000,4.000000,4.000000,4.000000,4.000000,4.000000,4.000000,4.000000,4.000000,4.000000,4.000000,4.000000,4.000000,4.000000,4.000000,100.000000,,,,,,,,,,,,,,,,,,,,,,,,,,,,,,,,,,,,,,,,,,,,,,,,,,,,,,,,,,,,,,,,,,,,,,
1605183912.191594,42.000000,0.000000,4226.153809,4208.205078,4173.846191,4137.051270,4089.615479,4107.563965,4102.948730,4153.717773,4144.102539,4080.641113,4120.641113,4149.615234,4025.769287,4197.820313,0.000000,3.000000,,,,0.000000,4.000000,4.000000,4.000000,4.000000,4.000000,4.000000,4.000000,4.000000,4.000000,4.000000,4.000000,4.000000,4.000000,4.000000,100.000000,1.162638,1.006532,0.633623,0.223455,0.215521,1.191570,0.926356,0.478956,0.357222,0.341956,0.600751,0.663487,0.367030,0.251483,0.276556,1.402930,0.771099,1.090103,2.403820,1.739037,1.753551,1.090951,1.055936,1.133107,0.968277,1.360481,0.581479,0.248630,0.318943,0.159164,1.307121,0.742164,0.309812,0.226947,0.096031,0.248294,0.387689,0.157148,0.093868,0.069182,0.324543,0.614681,0.170142,0.153492,0.142909,1.130697,1.962242,0.979982,4.066784,1.788511,7.914093,6.635722,3.258955,1.637336,1.641473,0.149695,0.141016,0.093885,0.105306,0.100577,1.048220,1.186820,1.187170,0.420093,0.432594,0.529046,0.384423,0.325561,0.154777,0.118869
1605183912.199583,43.000000,0.000000,4218.717773,4202.563965,4161.922852,4126.538574,4104.871582,4105.256348,4099.102539,4150.512695,4141.794922,4100.000000,4102.436035,4150.256348,4023.205078,4193.461426,0.000000,3.000000,,,,0.000000,4.000000,4.000000,4.000000,4.000000,4.000000,4.000000,4.000000,4.000000,4.000000,4.000000,4.000000,4.000000,4.000000,4.000000,100.000000,,,,,,,,,,,,,,,,,,,,,,,,,,,,,,,,,,,,,,,,,,,,,,,,,,,,,,,,,,,,,,,,,,,,,,
1605183912.207472,44.000000,0.000000,4217.307617,4206.153809,4156.794922,4135.512695,4105.769043,4106.666504,4105.128418,4153.717773,4146.282227,4111.794922,4103.333496,4151.410156,4027.692383,4198.974121,0.000000,3.000000,,,,0.000000,4.000000,4.000000,4.000000,4.000000,4.000000,4.000000,4.000000,4.000000,4.000000,4.000000,4.000000,4.000000,4.000000,4.000000,100.000000,,,,,,,,,,,,,,,,,,,,,,,,,,,,,,,,,,,,,,,,,,,,,,,,,,,,,,,,,,,,,,,,,,,,,,
1605183912.215461,45.000000,0.000000,4223.717773,4210.641113,4169.615234,4133.846191,4106.410156,4114.871582,4110.000000,4156.794922,4151.025879,4115.641113,4121.410156,4153.205078,4029.102539,4204.615234,0.000000,3.000000,,,,0.000000,4.000000,4.000000,4.000000,4.000000,4.000000,4.000000,4.000000,4.000000,4.000000,4.000000,4.000000,4.000000,4.000000,4.000000,100.000000,,,,,,,,,,,,,,,,,,,,,,,,,,,,,,,,,,,,,,,,,,,,,,,,,,,,,,,,,,,,,,,,,,,,,,
1605183912.223349,46.000000,0.000000,4213.077148,4197.307617,4165.897461,4117.436035,4112.307617,4110.256348,4104.358887,4151.794922,4145.384766,4108.589844,4111.410156,4148.846191,4019.615479,4195.256348,0.000000,3.000000,,,,0.000000,4.000000,4.000000,4.000000,4.000000,4.000000,4.000000,4.000000,4.000000,4.000000,4.000000,4.000000,4.000000,4.000000,4.000000,100.000000,,,,,,,,,,,,,,,,,,,,,,,,,,,,,,,,,,,,,,,,,,,,,,,,,,,,,,,,,,,,,,,,,,,,,,
1605183912.231338,47.000000,0.000000,4192.692383,4189.743652,4154.615234,4110.000000,4105.897461,4101.666504,4098.077148,4145.769043,4138.846191,4078.846191,4080.512939,4141.922852,4012.307617,4185.128418,0.000000,3.000000,,,,0.000000,4.000000,4.000000,4.000000,4.000000,4.000000,4.000000,4.000000,4.000000,4.000000,4.000000,4.000000,4.000000,4.000000,4.000000,100.000000,,,,,,,,,,,,,,,,,,,,,,,,,,,,,,,,,,,,,,,,,,,,,,,,,,,,,,,,,,,,,,,,,,,,,,
1605183912.239226,48.000000,0.000000,4177.436035,4178.974121,4149.102539,4099.102539,4084.230713,4094.230713,4091.666748,4138.205078,4129.871582,4049.871826,4043.333252,4137.307617,3996.538574,4175.769043,0.000000,3.000000,,,,0.000000,4.000000,4.000000,4.000000,4.000000,4.000000,4.000000,4.000000,4.000000,4.000000,4.000000,4.000000,4.000000,4.000000,4.000000,100.000000,,,,,,,,,,,,,,,,,,,,,,,,,,,,,,,,,,,,,,,,,,,,,,,,,,,,,,,,,,,,,,,,,,,,,,
1605183912.247215,49.000000,0.000000,4178.077148,4170.256348,4149.358887,4112.307617,4086.153809,4096.025879,4098.205078,4141.666504,4132.948730,4067.564209,4030.641113,4142.307617,3990.256348,4175.000000,0.000000,3.000000,,,,0.000000,4.000000,4.000000,4.000000,4.000000,4.000000,4.000000,4.000000,4.000000,4.000000,4.000000,4.000000,4.000000,4.000000,4.000000,100.000000,,,,,,,,,,,,,,,,,,,,,,,,,,,,,,,,,,,,,,,,,,,,,,,,,,,,,,,,,,,,,,,,,,,,,,
1605183912.255103,50.000000,0.000000,4182.307617,4176.282227,4147.436035,4134.871582,4104.871582,4105.000000,4106.794922,4151.025879,4146.410156,4089.230713,4050.769287,4144.871582,4002.051270,4178.846191,0.000000,3.000000,,,,0.000000,4.000000,4.000000,4.000000,4.000000,4.000000,4.000000,4.000000,4.000000,4.000000,4.000000,4.000000,4.000000,4.000000,4.000000,100.000000,,,,,,,,,,,,,,,,,,,,,,,,,,,,,,,,,,,,,,,,,,,,,,,,,,,,,,,,,,,,,,,,,,,,,,
1605183912.263092,51.000000,0.000000,4178.461426,4185.897461,4146.666504,4112.692383,4112.692383,4110.384766,4104.230957,4151.922852,4148.461426,4079.487061,4052.435791,4141.153809,4001.153809,4176.282227,0.000000,3.000000,,,,0.000000,4.000000,4.000000,4.000000,4.000000,4.000000,4.000000,4.000000,4.000000,4.000000,4.000000,4.000000,4.000000,4.000000,4.000000,100.000000,,,,,,,,,,,,,,,,,,,,,,,,,,,,,,,,,,,,,,,,,,,,,,,,,,,,,,,,,,,,,,,,,,,,,,
1605183912.270980,52.000000,0.000000,4168.077148,4176.794922,4148.333496,4083.461426,4102.436035,4103.205078,4096.794922,4145.128418,4139.743652,4085.512939,4025.897461,4136.282227,3985.256348,4169.102539,0.000000,3.000000,,,,0.000000,4.000000,4.000000,4.000000,4.000000,4.000000,4.000000,4.000000,4.000000,4.000000,4.000000,4.000000,4.000000,4.000000,4.000000,100.000000,,,,,,,,,,,,,,,,,,,,,,,,,,,,,,,,,,,,,,,,,,,,,,,,,,,,,,,,,,,,,,,,,,,,,,
1605183912.278868,53.000000,0.000000,4161.025879,4168.589844,4147.436035,4106.153809,4099.358887,4101.538574,4098.205078,4145.641113,4141.410156,4094.871826,4018.589844,4137.948730,3982.564209,4169.743652,0.000000,3.000000,,,,0.000000,4.000000,4.000000,4.000000,4.000000,4.000000,4.000000,4.000000,4.000000,4.000000,4.000000,4.000000,4.000000,4.000000,4.000000,100.000000,,,,,,,,,,,,,,,,,,,,,,,,,,,,,,,,,,,,,,,,,,,,,,,,,,,,,,,,,,,,,,,,,,,,,,
1605183912.286756,54.000000,0.000000,4162.692383,4181.153809,4142.307617,4134.615234,4110.769043,4110.000000,4104.871582,4149.743652,4145.128418,4068.846191,4037.820557,4141.922852,3988.589844,4174.615234,0.000000,3.000000,,,,0.000000,4.000000,4.000000,4.000000,4.000000,4.000000,4.000000,4.000000,4.000000,4.000000,4.000000,4.000000,4.000000,4.000000,4.000000,100.000000,,,,,,,,,,,,,,,,,,,,,,,,,,,,,,,,,,,,,,,,,,,,,,,,,,,,,,,,,,,,,,,,,,,,,,
1605183912.294544,55.000000,0.000000,4163.589844,4189.871582,4144.102539,4128.717773,4112.307617,4112.563965,4109.487305,4150.512695,4146.538574,4070.128174,4049.487061,4144.358887,3995.128174,4176.666504,0.000000,3.000000,,,,0.000000,4.000000,4.000000,4.000000,4.000000,4.000000,4.000000,4.000000,4.000000,4.000000,4.000000,4.000000,4.000000,4.000000,4.000000,100.000000,,,,,,,,,,,,,,,,,,,,,,,,,,,,,,,,,,,,,,,,,,,,,,,,,,,,,,,,,,,,,,,,,,,,,,
1605183912.302432,56.000000,0.000000,4160.256348,4181.666504,4149.102539,4119.487305,4112.820313,4114.615234,4112.051270,4151.922852,4149.487305,4110.769043,4063.974365,4145.384766,4005.256348,4176.538574,0.000000,3.000000,,,,0.000000,4.000000,4.000000,4.000000,4.000000,4.000000,4.000000,4.000000,4.000000,4.000000,4.000000,4.000000,4.000000,4.000000,4.000000,100.000000,,,,,,,,,,,,,,,,,,,,,,,,,,,,,,,,,,,,,,,,,,,,,,,,,,,,,,,,,,,,,,,,,,,,,,
1605183912.310221,57.000000,0.000000,4148.846191,4167.948730,4141.666504,4105.256348,4131.922852,4116.666504,4108.333496,4149.871582,4142.692383,4109.871582,4057.692383,4140.384766,3997.051270,4171.922852,0.000000,3.000000,,,,0.000000,4.000000,4.000000,4.000000,4.000000,4.000000,4.000000,4.000000,4.000000,4.000000,4.000000,4.000000,4.000000,4.000000,4.000000,100.000000,,,,,,,,,,,,,,,,,,,,,,,,,,,,,,,,,,,,,,,,,,,,,,,,,,,,,,,,,,,,,,,,,,,,,,
1605183912.318109,58.000000,0.000000,4147.563965,4178.205078,4144.743652,4100.769043,4137.307617,4117.820313,4109.358887,4149.615234,4141.794922,4085.769287,4047.948730,4137.436035,3987.307617,4171.410156,0.000000,3.000000,,,,0.000000,4.000000,4.000000,4.000000,4.000000,4.000000,4.000000,4.000000,4.000000,4.000000,4.000000,4.000000,4.000000,4.000000,4.000000,100.000000,0.975647,0.882579,0.451333,0.197711,0.214516,1.105403,0.918129,0.451110,0.327929,0.320297,0.445371,0.573869,0.291315,0.258876,0.295405,1.206794,0.787267,1.204341,2.036297,1.681750,1.640500,1.067139,0.985220,1.123533,0.928568,1.334188,0.561673,0.231654,0.304957,0.148175,1.213483,0.706849,0.263560,0.225552,0.090927,0.249006,0.351716,0.130897,0.091054,0.065633,0.335608,0.599839,0.128768,0.154238,0.133802,0.970937,1.691960,0.936434,4.250432,1.687322,6.552925,5.453992,2.640577,1.607692,1.561622,0.097627,0.135581,0.091100,0.096530,0.106976,0.962684,1.025681,0.846816,0.386620,0.395339,0.351112,0.326149,0.280254,0.143954,0.109273
1605183912.325897,59.000000,0.000000,4152.948730,4184.871582,4154.358887,4119.615234,4109.615234,4116.922852,4115.000000,4152.307617,4151.922852,4089.615479,4052.692383,4140.769043,3993.846191,4171.794922,0.000000,3.000000,,,,0.000000,4.000000,4.000000,4.000000,4.000000,4.000000,4.000000,4.000000,4.000000,4.000000,4.000000,4.000000,4.000000,4.000000,4.000000,100.000000,,,,,,,,,,,,,,,,,,,,,,,,,,,,,,,,,,,,,,,,,,,,,,,,,,,,,,,,,,,,,,,,,,,,,,
1605183912.333784,60.000000,0.000000,4146.922852,4166.025879,4144.871582,4120.641113,4117.436035,4118.461426,4120.512695,4153.846191,4155.769043,4107.820313,4056.153809,4142.563965,3994.487061,4167.692383,0.000000,3.000000,,,,0.000000,4.000000,4.000000,4.000000,4.000000,4.000000,4.000000,4.000000,4.000000,4.000000,4.000000,4.000000,4.000000,4.000000,4.000000,100.000000,,,,,,,,,,,,,,,,,,,,,,,,,,,,,,,,,,,,,,,,,,,,,,,,,,,,,,,,,,,,,,,,,,,,,,
1605183912.341572,61.000000,0.000000,4132.692383,4152.307617,4132.436035,4099.871582,4126.666504,4106.922852,4114.487305,4150.256348,4145.769043,4091.410156,4035.256348,4137.820313,3980.384521,4163.077148,0.000000,3.000000,,,,0.000000,4.000000,4.000000,4.000000,4.000000,4.000000,4.000000,4.000000,4.000000,4.000000,4.000000,4.000000,4.000000,4.000000,4.000000,100.000000,,,,,,,,,,,,,,,,,,,,,,,,,,,,,,,,,,,,,,,,,,,,,,,,,,,,,,,,,,,,,,,,,,,,,,
1605183912.349460,62.000000,0.000000,4136.922852,4164.871582,4143.333496,4108.974121,4100.769043,4099.102539,4107.563965,4149.615234,4146.794922,4077.179443,4033.846191,4138.077148,3987.692383,4166.153809,0.000000,3.000000,,,,0.000000,4.000000,4.000000,4.000000,4.000000,4.000000,4.000000,4.000000,4.000000,4.000000,4.000000,4.000000,4.000000,4.000000,4.000000,100.000000,,,,,,,,,,,,,,,,,,,,,,,,,,,,,,,,,,,,,,,,,,,,,,,,,,,,,,,,,,,,,,,,,,,,,,
1605183912.357248,63.000000,0.000000,4137.179688,4159.871582,4142.692383,4110.256348,4094.871826,4100.897461,4100.641113,4146.410156,4148.205078,4088.205078,4032.948730,4136.410156,3989.743652,4161.666504,0.000000,3.000000,,,,0.000000,4.000000,4.000000,4.000000,4.000000,4.000000,4.000000,4.000000,4.000000,4.000000,4.000000,4.000000,4.000000,4.000000,4.000000,100.000000,,,,,,,,,,,,,,,,,,,,,,,,,,,,,,,,,,,,,,,,,,,,,,,,,,,,,,,,,,,,,,,,,,,,,,
1605183912.365135,64.000000,0.000000,4127.307617,4149.743652,4130.384766,4094.358887,4122.436035,4108.333496,4102.051270,4145.769043,4151.922852,4113.077148,4014.358887,4131.282227,3974.743652,4154.871582,2485.000000,3.000000,,,,0.000000,4.000000,4.000000,4.000000,4.000000,4.000000,4.000000,4.000000,4.000000,4.000000,4.000000,4.000000,4.000000,4.000000,4.000000,100.000000,,,,,,,,,,,,,,,,,,,,,,,,,,,,,,,,,,,,,,,,,,,,,,,,,,,,,,,,,,,,,,,,,,,,,,
1605183912.372923,65.000000,0.000000,4122.692383,4157.563965,4130.384766,4088.589844,4116.666504,4113.846191,4105.512695,4148.077148,4155.000000,4124.615234,4001.666748,4129.487305,3967.692383,4153.077148,2904.000000,3.000000,,,,0.000000,4.000000,4.000000,4.000000,4.000000,4.000000,4.000000,4.000000,4.000000,4.000000,4.000000,4.000000,4.000000,4.000000,4.000000,100.000000,,,,,,,,,,,,,,,,,,,,,,,,,,,,,,,,,,,,,,,,,,,,,,,,,,,,,,,,,,,,,,,,,,,,,,
1605183912.380810,66.000000,0.000000,4127.436035,4167.948730,4137.692383,4098.589844,4107.820313,4126.282227,4112.179688,4150.769043,4152.692383,4101.538574,4015.256348,4133.589844,3975.128174,4158.205078,2680.000000,3.000000,,,,0.000000,4.000000,4.000000,4.000000,4.000000,4.000000,4.000000,4.000000,4.000000,4.000000,4.000000,4.000000,4.000000,4.000000,4.000000,100.000000,,,,,,,,,,,,,,,,,,,,,,,,,,,,,,,,,,,,,,,,,,,,,,,,,,,,,,,,,,,,,,,,,,,,,,
1605183912.388598,67.000000,0.000000,4122.948730,4159.871582,4129.871582,4104.358887,4121.025879,4128.205078,4113.717773,4148.461426,4146.153809,4071.666748,4022.435791,4134.615234,3974.871826,4156.538574,2934.000000,3.000000,,,,0.000000,4.000000,4.000000,4.000000,4.000000,4.000000,4.000000,4.000000,4.000000,4.000000,4.000000,4.000000,4.000000,4.000000,4.000000,100.000000,,,,,,,,,,,,,,,,,,,,,,,,,,,,,,,,,,,,,,,,,,,,,,,,,,,,,,,,,,,,,,,,,,,,,,
1605183912.396485,68.000000,0.000000,4117.051270,4149.615234,4121.666504,4102.820313,4122.563965,4121.794922,4115.641113,4148.205078,4147.563965,4092.820557,4012.820557,4135.641113,3972.051270,4151.410156,3070.000000,3.000000,,,,0.000000,4.000000,4.000000,4.000000,4.000000,4.000000,4.000000,4.000000,4.000000,4.000000,4.000000,4.000000,4.000000,4.000000,4.000000,100.000000,,,,,,,,,,,,,,,,,,,,,,,,,,,,,,,,,,,,,,,,,,,,,,,,,,,,,,,,,,,,,,,,,,,,,,
1605183912.404272,69.000000,0.000000,4117.948730,4145.641113,4126.666504,4088.589844,4116.410156,4115.512695,4115.769043,4147.436035,4142.436035,4113.461426,4009.487061,4134.230957,3970.000000,4153.589844,2964.000000,3.000000,,,,0.000000,4.000000,4.000000,4.000000,4.000000,4.000000,4.000000,4.000000,4.000000,4.000000,4.000000,4.000000,4.000000,4.000000,4.000000,100.000000,,,,,,,,,,,,,,,,,,,,,,,,,,,,,,,,,,,,,,,,,,,,,,,,,,,,,,,,,,,,,,,,,,,,,,
1605183912.412159,70.000000,0.000000,4121.922852,4146.666504,4140.769043,4097.179688,4104.102539,4108.333496,4114.102539,4148.846191,4137.307617,4075.512939,4020.256348,4135.128418,3974.487061,4161.410156,2699.000000,3.000000,,,,0.000000,4.000000,4.000000,4.000000,4.000000,4.000000,4.000000,4.000000,4.000000,4.000000,4.000000,4.000000,4.000000,4.000000,4.000000,100.000000,,,,,,,,,,,,,,,,,,,,,,,,,,,,,,,,,,,,,,,,,,,,,,,,,,,,,,,,,,,,,,,,,,,,,,
1605183912.419946,71.000000,0.000000,4115.769043,4142.820313,4138.974121,4106.025879,4079.871826,4104.102539,4109.743652,4147.179688,4141.922852,4058.974365,4012.948730,4134.230957,3975.128174,4157.563965,2069.000000,3.000000,,,,0.000000,4.000000,4.000000,4.000000,4.000000,4.000000,4.000000,4.000000,4.000000,4.000000,4.000000,4.000000,4.000000,4.000000,4.000000,100.000000,,,,,,,,,,,,,,,,,,,,,,,,,,,,,,,,,,,,,,,,,,,,,,,,,,,,,,,,,,,,,,,,,,,,,,
1605183912.427833,72.000000,0.000000,4100.512695,4130.641113,4117.948730,4060.641113,4081.410156,4107.948730,4100.641113,4141.794922,4144.358887,4093.205078,3974.487061,4128.717773,3953.974365,4144.358887,2713.000000,3.000000,,,,0.000000,4.000000,4.000000,4.000000,4.000000,4.000000,4.000000,4.000000,4.000000,4.000000,4.000000,4.000000,4.000000,4.000000,4.000000,100.000000,,,,,,,,,,,,,,,,,,,,,,,,,,,,,,,,,,,,,,,,,,,,,,,,,,,,,,,,,,,,,,,,,,,,,,
1605183912.435620,73.000000,0.000000,4093.974365,4127.436035,4112.307617,4047.820557,4103.717773,4106.410156,4095.897461,4142.051270,4138.717773,4090.128174,3961.153809,4127.179688,3940.000000,4145.000000,2761.000000,3.000000,,,,0.000000,4.000000,4.000000,4.000000,4.000000,4.000000,4.000000,4.000000,4.000000,4.000000,4.000000,4.000000,4.000000,4.000000,4.000000,100.000000,,,,,,,,,,,,,,,,,,,,,,,,,,,,,,,,,,,,,,,,,,,,,,,,,,,,,,,,,,,,,,,,,,,,,,
1605183912.443507,74.000000,0.000000,4098.717773,4134.102539,4122.307617,4100.384766,4095.000000,4096.666504,4098.461426,4145.384766,4136.794922,4061.153809,3977.435791,4134.102539,3952.692383,4155.384766,2536.000000,3.000000,,,,0.000000,4.000000,4.000000,4.000000,4.000000,4.000000,4.000000,4.000000,4.000000,4.000000,4.000000,4.000000,4.000000,4.000000,4.000000,100.000000,1.022436,0.779319,0.310412,0.186998,0.212111,1.047931,0.892375,0.460244,0.303518,0.300592,0.396817,0.482160,0.243602,0.265675,0.304656,1.057412,0.782957,1.336606,1.646750,1.632421,1.541117,1.021852,0.851283,1.145643,0.889749,1.320679,0.540327,0.205164,0.303415,0.138555,1.134828,0.654548,0.227008,0.231109,0.088051,0.255747,0.313206,0.111353,0.089427,0.057946,0.339994,0.585151,0.094572,0.159343,0.117888,0.918687,1.516953,1.022944,4.671180,1.605744,5.822367,4.742787,2.185737,1.617861,1.406761,0.063920,0.137109,0.088759,0.088328,0.108563,1.078934,0.960377,0.572631,0.369120,0.360901,0.285253,0.313594,0.250176,0.140639,0.098925
1605183912.451294,75.000000,0.000000,4103.846191,4138.846191,4124.358887,4116.282227,4078.846191,4098.333496,4103.717773,4146.666504,4143.461426,4076.794922,3989.358887,4133.589844,3961.025635,4155.769043,2049.000000,3.000000,,,,0.000000,4.000000,4.000000,4.000000,4.000000,4.000000,4.000000,4.000000,4.000000,4.000000,4.000000,4.000000,4.000000,4.000000,4.000000,100.000000,,,,,,,,,,,,,,,,,,,,,,,,,,,,,,,,,,,,,,,,,,,,,,,,,,,,,,,,,,,,,,,,,,,,,,
1605183912.459082,76.000000,0.000000,4095.769287,4133.846191,4118.333496,4080.769287,4085.000000,4099.102539,4101.153809,4143.461426,4146.922852,4090.256348,3973.974365,4126.666504,3947.692383,4145.384766,4101.000000,3.000000,,,,0.000000,4.000000,4.000000,4.000000,4.000000,4.000000,4.000000,4.000000,4.000000,4.000000,4.000000,4.000000,4.000000,4.000000,4.000000,100.000000,,,,,,,,,,,,,,,,,,,,,,,,,,,,,,,,,,,,,,,,,,,,,,,,,,,,,,,,,,,,,,,,,,,,,,
1605183912.466970,77.000000,0.000000,4092.948730,4136.538574,4120.512695,4078.076904,4093.589844,4103.333496,4104.102539,4145.384766,4151.794922,4084.102539,3973.718018,4128.333496,3944.487061,4144.102539,1901.000000,3.000000,,,,0.000000,4.000000,4.000000,4.000000,4.000000,4.000000,4.000000,4.000000,4.000000,4.000000,4.000000,4.000000,4.000000,4.000000,4.000000,100.000000,,,,,,,,,,,,,,,,,,,,,,,,,,,,,,,,,,,,,,,,,,,,,,,,,,,,,,,,,,,,,,,,,,,,,,
1605183912.474758,78.000000,0.000000,4092.692383,4129.615234,4118.077148,4078.846191,4085.769287,4107.948730,4103.077148,4145.000000,4147.563965,4076.794922,3970.384521,4127.692383,3942.692383,4143.461426,2536.000000,3.000000,,,,0.000000,4.000000,4.000000,4.000000,4.000000,4.000000,4.000000,4.000000,4.000000,4.000000,4.000000,4.000000,4.000000,4.000000,4.000000,100.000000,,,,,,,,,,,,,,,,,,,,,,,,,,,,,,,,,,,,,,,,,,,,,,,,,,,,,,,,,,,,,,,,,,,,,,
1605183912.482747,79.000000,0.000000,4092.307617,4121.794922,4117.692383,4062.307617,4087.179443,4106.410156,4099.743652,4143.205078,4141.282227,4085.641113,3961.025635,4124.102539,3937.435791,4139.615234,2049.000000,3.000000,,,,0.000000,4.000000,4.000000,4.000000,4.000000,4.000000,4.000000,4.000000,4.000000,4.000000,4.000000,4.000000,4.000000,4.000000,4.000000,100.000000,,,,,,,,,,,,,,,,,,,,,,,,,,,,,,,,,,,,,,,,,,,,,,,,,,,,,,,,,,,,,,,,,,,,,,
1605183912.490636,80.000000,0.000000,4090.000000,4128.205078,4117.179688,4085.641113,4079.871826,4096.538574,4096.025879,4141.794922,4139.102539,4087.051270,3963.076904,4123.205078,3939.230713,4137.179688,4101.000000,3.000000,,,,0.000000,4.000000,4.000000,4.000000,4.000000,4.000000,4.000000,4.000000,4.000000,4.000000,4.000000,4.000000,4.000000,4.000000,4.000000,100.000000,,,,,,,,,,,,,,,,,,,,,,,,,,,,,,,,,,,,,,,,,,,,,,,,,,,,,,,,,,,,,,,,,,,,,,
1605183912.498625,81.000000,0.000000,4098.205078,4140.897461,4117.563965,4117.563965,4076.794922,4104.230957,4105.000000,4148.589844,4148.333496,4080.769287,3987.564209,4131.282227,3955.641113,4144.358887,1901.000000,3.000000,,,,0.000000,4.000000,4.000000,4.000000,4.000000,4.000000,4.000000,4.000000,4.000000,4.000000,4.000000,4.000000,4.000000,4.000000,4.000000,100.000000,,,,,,,,,,,,,,,,,,,,,,,,,,,,,,,,,,,,,,,,,,,,,,,,,,,,,,,,,,,,,,,,,,,,,,
1605183912.506514,82.000000,0.000000,4097.436035,4134.358887,4116.153809,4077.692383,4093.846191,4113.205078,4111.025879,4151.666504,4149.102539,4084.615479,3992.051270,4134.871582,3954.102539,4146.410156,2536.000000,3.000000,,,,0.000000,4.000000,4.000000,4.000000,4.000000,4.000000,4.000000,4.000000,4.000000,4.000000,4.000000,4.000000,4.000000,4.000000,4.000000,100.000000,,,,,,,,,,,,,,,,,,,,,,,,,,,,,,,,,,,,,,,,,,,,,,,,,,,,,,,,,,,,,,,,,,,,,,
1605183912.514502,83.000000,0.000000,4101.410156,4138.974121,4119.743652,4057.179443,4103.589844,4113.205078,4112.179688,4148.589844,4147.563965,4097.436035,3995.641113,4135.384766,3951.025635,4145.641113,2049.000000,3.000000,,,,0.000000,4.000000,4.000000,4.000000,4.000000,4.000000,4.000000,4.000000,4.000000,4.000000,4.000000,4.000000,4.000000,4.000000,4.000000,100.000000,,,,,,,,,,,,,,,,,,,,,,,,,,,,,,,,,,,,,,,,,,,,,,,,,,,,,,,,,,,,,,,,,,,,,,
1605183912.522391,84.000000,0.000000,4110.897461,4147.563965,4122.307617,4107.051270,4086.923096,4111.025879,4109.871582,4143.846191,4148.461426,4089.102539,4016.281982,4133.077148,3962.820557,4145.769043,4101.000000,3.000000,,,,0.000000,4.000000,4.000000,4.000000,4.000000,4.000000,4.000000,4.000000,4.000000,4.000000,4.000000,4.000000,4.000000,4.000000,4.000000,100.000000,,,,,,,,,,,,,,,,,,,,,,,,,,,,,,,,,,,,,,,,,,,,,,,,,,,,,,,,,,,,,,,,,,,,,,
1605183912.530380,85.000000,0.000000,4110.256348,4144.358887,4123.974121,4129.871582,4094.230713,4117.563965,4111.922852,4145.512695,4153.461426,4095.256348,4024.871826,4131.538574,3965.256348,4147.307617,1901.000000,3.000000,,,,0.000000,4.000000,4.000000,4.000000,4.000000,4.000000,4.000000,4.000000,4.000000,4.000000,4.000000,4.000000,4.000000,4.000000,4.000000,100.000000,,,,,,,,,,,,,,,,,,,,,,,,,,,,,,,,,,,,,,,,,,,,,,,,,,,,,,,,,,,,,,,,,,,,,,
1605183912.538268,86.000000,0.000000,4105.000000,4141.410156,4123.589844,4083.718018,4112.563965,4119.871582,4113.205078,4147.436035,4153.717773,4127.179688,4013.333252,4132.307617,3951.153809,4144.871582,2536.000000,3.000000,,,,0.000000,4.000000,4.000000,4.000000,4.000000,4.000000,4.000000,4.000000,4.000000,4.000000,4.000000,4.000000,4.000000,4.000000,4.000000,100.000000,,,,,,,,,,,,,,,,,,,,,,,,,,,,,,,,,,,,,,,,,,,,,,,,,,,,,,,,,,,,,,,,,,,,,,
1605183912.546257,87.000000,0.000000,4116.538574,4152.179688,4133.974121,4072.307617,4113.205078,4121.282227,4117.563965,4151.410156,4154.615234,4122.307617,4018.718018,4138.461426,3955.256348,4149.230957,2049.000000,3.000000,,,,0.000000,4.000000,4.000000,4.000000,4.000000,4.000000,4.000000,4.000000,4.000000,4.000000,4.000000,4.000000,4.000000,4.000000,4.000000,100.000000,,,,,,,,,,,,,,,,,,,,,,,,,,,,,,,,,,,,,,,,,,,,,,,,,,,,,,,,,,,,,,,,,,,,,,
1605183912.554145,88.000000,0.000000,4130.256348,4163.589844,4142.692383,4115.641113,4116.282227,4129.615234,4125.769043,4153.589844,4158.077148,4099.743652,4048.974365,4139.358887,3971.153809,4156.666504,4101.000000,3.000000,,,,0.000000,4.000000,4.000000,4.000000,4.000000,4.000000,4.000000,4.000000,4.000000,4.000000,4.000000,4.000000,4.000000,4.000000,4.000000,100.000000,,,,,,,,,,,,,,,,,,,,,,,,,,,,,,,,,,,,,,,,,,,,,,,,,,,,,,,,,,,,,,,,,,,,,,
1605183912.562133,89.000000,0.000000,4137.436035,4175.641113,4141.922852,4149.615234,4128.205078,4141.410156,4137.820313,4155.769043,4167.948730,4123.974121,4086.281982,4138.717773,3981.923096,4161.794922,1901.000000,3.000000,,,,0.000000,4.000000,4.000000,4.000000,4.000000,4.000000,4.000000,4.000000,4.000000,4.000000,4.000000,4.000000,4.000000,4.000000,4.000000,100.000000,,,,,,,,,,,,,,,,,,,,,,,,,,,,,,,,,,,,,,,,,,,,,,,,,,,,,,,,,,,,,,,,,,,,,,
1605183912.570022,90.000000,0.000000,4138.846191,4184.871582,4142.179688,4150.512695,4119.743652,4142.820313,4141.410156,4159.230957,4170.512695,4153.205078,4109.871582,4139.358887,3988.461426,4162.563965,2536.000000,3.000000,,,,0.000000,4.000000,4.000000,4.000000,4.000000,4.000000,4.000000,4.000000,4.000000,4.000000,4.000000,4.000000,4.000000,4.000000,4.000000,100.000000,1.518688,0.733734,0.268821,0.194780,0.209881,1.026564,0.842075,0.508723,0.300874,0.281180,0.499440,0.404350,0.224655,0.266632,0.304989,0.947934,0.786329,1.427577,1.375432,1.581401,1.477250,1.001104,0.695623,1.196436,0.860062,1.310476,0.533395,0.176706,0.313281,0.131448,1.069056,0.611026,0.207533,0.241234,0.088244,0.264670,0.287816,0.100583,0.090128,0.048405,0.344765,0.578601,0.070704,0.165009,0.100460,0.969071,1.499452,1.243645,5.234940,1.528268,5.822944,4.793734,1.966544,1.651889,1.211094,0.058631,0.148390,0.087922,0.082575,0.105595,1.202377,1.021006,0.419026,0.363081,0.328001,0.377722,0.357468,0.237866,0.143189,0.091150
1605183912.578010,91.000000,0.000000,4131.538574,4180.512695,4140.769043,4124.487305,4117.820313,4140.512695,4137.307617,4162.051270,4164.743652,4152.820313,4100.000000,4137.563965,3980.384521,4158.974121,2049.000000,3.000000,,,,0.000000,4.000000,4.000000,4.000000,4.000000,4.000000,4.000000,4.000000,4.000000,4.000000,4.000000,4.000000,4.000000,4.000000,4.000000,100.000000,,,,,,,,,,,,,,,,,,,,,,,,,,,,,,,,,,,,,,,,,,,,,,,,,,,,,,,,,,,,,,,,,,,,,,
1605183912.585898,92.000000,0.000000,4129.743652,4173.461426,4137.436035,4114.358887,4142.051270,4145.128418,4141.153809,4161.922852,4166.153809,4141.666504,4096.410156,4136.282227,3972.948730,4152.948730,4101.000000,3.000000,,,,0.000000,4.000000,4.000000,4.000000,4.000000,4.000000,4.000000,4.000000,4.000000,4.000000,4.000000,4.000000,4.000000,4.000000,4.000000,100.000000,,,,,,,,,,,,,,,,,,,,,,,,,,,,,,,,,,,,,,,,,,,,,,,,,,,,,,,,,,,,,,,,,,,,,,
1605183912.593787,93.000000,0.000000,4134.358887,4175.641113,4137.051270,4136.282227,4145.512695,4146.282227,4144.871582,4159.487305,4163.717773,4126.410156,4105.128418,4137.179688,3977.692383,4152.179688,1901.000000,3.000000,,,,0.000000,4.000000,4.000000,4.000000,4.000000,4.000000,4.000000,4.000000,4.000000,4.000000,4.000000,4.000000,4.000000,4.000000,4.000000,100.000000,,,,,,,,,,,,,,,,,,,,,,,,,,,,,,,,,,,,,,,,,,,,,,,,,,,,,,,,,,,,,,,,,,,,,,
1605183912.601675,94.000000,0.000000,4139.230957,4185.897461,4144.487305,4136.666504,4135.256348,4150.512695,4146.025879,4163.205078,4160.256348,4138.589844,4113.717773,4136.538574,3983.461426,4158.717773,2536.000000,3.000000,,,,0.000000,4.000000,4.000000,4.000000,4.000000,4.000000,4.000000,4.000000,4.000000,4.000000,4.000000,4.000000,4.000000,4.000000,4.000000,100.000000,,,,,,,,,,,,,,,,,,,,,,,,,,,,,,,,,,,,,,,,,,,,,,,,,,,,,,,,,,,,,,,,,,,,,,
1605183912.609663,95.000000,0.000000,4138.589844,4180.256348,4149.615234,4101.410156,4142.307617,4157.436035,4149.358887,4166.922852,4165.384766,4153.589844,4115.512695,4139.358887,3984.487061,4158.461426,2049.000000,3.000000,,,,0.000000,4.000000,4.000000,4.000000,4.000000,4.000000,4.000000,4.000000,4.000000,4.000000,4.000000,4.000000,4.000000,4.000000,4.000000,100.000000,,,,,,,,,,,,,,,,,,,,,,,,,,,,,,,,,,,,,,,,,,,,,,,,,,,,,,,,,,,,,,,,,,,,,,
1605183912.617551,96.000000,0.000000,4143.589844,4177.820313,4154.230957,4121.538574,4163.077148,4162.692383,4155.384766,4167.436035,4171.922852,4135.769043,4134.615234,4145.128418,3992.692383,4157.436035,4101.000000,3.000000,,,,0.000000,4.000000,4.000000,4.000000,4.000000,4.000000,4.000000,4.000000,4.000000,4.000000,4.000000,4.000000,4.000000,4.000000,4.000000,100.000000,,,,,,,,,,,,,,,,,,,,,,,,,,,,,,,,,,,,,,,,,,,,,,,,,,,,,,,,,,,,,,,,,,,,,,
1605183912.625339,97.000000,0.000000,4151.025879,4192.307617,4153.205078,4177.307617,4156.666504,4160.128418,4155.128418,4166.794922,4168.461426,4132.948730,4148.589844,4143.461426,3995.641113,4161.538574,1901.000000,3.000000,,,,0.000000,4.000000,4.000000,4.000000,4.000000,4.000000,4.000000,4.000000,4.000000,4.000000,4.000000,4.000000,4.000000,4.000000,4.000000,100.000000,,,,,,,,,,,,,,,,,,,,,,,,,,,,,,,,,,,,,,,,,,,,,,,,,,,,,,,,,,,,,,,,,,,,,,
1605183912.633227,98.000000,0.000000,4156.922852,4200.769043,4158.974121,4164.358887,4147.307617,4163.974121,4159.615234,4170.769043,4169.230957,4172.436035,4157.307617,4141.666504,3996.410156,4168.717773,2536.000000,3.000000,,,,0.000000,4.000000,4.000000,4.000000,4.000000,4.000000,4.000000,4.000000,4.000000,4.000000,4.000000,4.000000,4.000000,4.000000,4.000000,100.000000,,,,,,,,,,,,,,,,,,,,,,,,,,,,,,,,,,,,,,,,,,,,,,,,,,,,,,,,,,,,,,,,,,,,,,
1605183912.641015,99.000000,0.000000,4148.846191,4179.230957,4158.461426,4117.563965,4142.948730,4157.436035,4153.589844,4166.922852,4164.487305,4163.846191,4144.871582,4138.333496,3992.820557,4164.487305,2049.000000,3.000000,,,,0.000000,4.000000,4.000000,4.000000,4.000000,4.000000,4.000000,4.000000,4.000000,4.000000,4.000000,4.000000,4.000000,4.000000,4.000000,100.000000,,,,,,,,,,,,,,,,,,,,,,,,,,,,,,,,,,,,,,,,,,,,,,,,,,,,,,,,,,,,,,,,,,,,,,
1605183912.648902,100.000000,0.000000,4144.102539,4169.615234,4146.153809,4127.948730,4146.282227,4150.256348,4147.179688,4163.333496,4161.794922,4136.538574,4129.102539,4135.128418,3988.846191,4157.307617,4101.000000,3.000000,,,,0.000000,4.000000,4.000000,4.000000,4.000000,4.000000,4.000000,4.000000,4.000000,4.000000,4.000000,4.000000,4.000000,4.000000,4.000000,100.000000,,,,,,,,,,,,,,,,,,,,,,,,,,,,,,,,,,,,,,,,,,,,,,,,,,,,,,,,,,,,,,,,,,,,,,
1605183912.656690,101.000000,0.000000,4149.871582,4183.205078,4142.692383,4151.410156,4152.692383,4155.256348,4153.974121,4166.153809,4164.743652,4157.179688,4132.948730,4138.077148,3985.512939,4157.563965,1901.000000,3.000000,,,,0.000000,4.000000,4.000000,4.000000,4.000000,4.000000,4.000000,4.000000,4.000000,4.000000,4.000000,4.000000,4.000000,4.000000,4.000000,100.000000,,,,,,,,,,,,,,,,,,,,,,,,,,,,,,,,,,,,,,,,,,,,,,,,,,,,,,,,,,,,,,,,,,,,,,
1605183912.664578,102.000000,0.000000,4158.077148,4194.487305,4155.128418,4149.743652,4155.897461,4166.794922,4165.512695,4171.666504,4168.589844,4172.692383,4155.512695,4143.461426,3992.179443,4164.615234,2536.000000,3.000000,,,,0.000000,4.000000,4.000000,4.000000,4.000000,4.000000,4.000000,4.000000,4.000000,4.000000,4.000000,4.000000,4.000000,4.000000,4.000000,100.000000,,,,,,,,,,,,,,,,,,,,,,,,,,,,,,,,,,,,,,,,,,,,,,,,,,,,,,,,,,,,,,,,,,,,,,
1605183912.672365,103.000000,0.000000,4154.102539,4190.000000,4155.641113,4139.230957,4150.769043,4164.102539,4162.948730,4172.436035,4170.641113,4151.538574,4165.128418,4140.641113,3997.564209,4163.333496,2049.000000,3.000000,,,,0.000000,4.000000,4.000000,4.000000,4.000000,4.000000,4.000000,4.000000,4.000000,4.000000,4.000000,4.000000,4.000000,4.000000,4.000000,100.000000,,,,,,,,,,,,,,,,,,,,,,,,,,,,,,,,,,,,,,,,,,,,,,,,,,,,,,,,,,,,,,,,,,,,,,
1605183912.680253,104.000000,0.000000,4153.333496,4192.051270,4155.512695,4146.153809,4150.897461,4163.846191,4165.512695,4175.769043,4179.102539,4158.846191,4169.871582,4141.538574,4000.384521,4159.871582,4101.000000,3.000000,,,,0.000000,4.000000,4.000000,4.000000,4.000000,4.000000,4.000000,4.000000,4.000000,4.000000,4.000000,4.000000,4.000000,4.000000,4.000000,100.000000,,,,,,,,,,,,,,,,,,,,,,,,,,,,,,,,,,,,,,,,,,,,,,,,,,,,,,,,,,,,,,,,,,,,,,
1605183912.688041,105.000000,0.000000,4155.769043,4195.000000,4157.948730,4158.717773,4152.179688,4167.179688,4167.436035,4175.000000,4174.871582,4179.615234,4177.307617,4143.205078,4003.333252,4161.025879,1901.000000,3.000000,,,,0.000000,4.000000,4.000000,4.000000,4.000000,4.000000,4.000000,4.000000,4.000000,4.000000,4.000000,4.000000,4.000000,4.000000,4.000000,100.000000,,,,,,,,,,,,,,,,,,,,,,,,,,,,,,,,,,,,,,,,,,,,,,,,,,,,,,,,,,,,,,,,,,,,,,
1605183912.695928,106.000000,0.000000,4152.179688,4194.102539,4153.589844,4164.615234,4151.153809,4166.025879,4162.692383,4172.307617,4165.512695,4180.128418,4171.282227,4140.641113,4003.589844,4163.717773,2536.000000,3.000000,,,,0.000000,4.000000,4.000000,4.000000,4.000000,4.000000,4.000000,4.000000,4.000000,4.000000,4.000000,4.000000,4.000000,4.000000,4.000000,100.000000,2.608965,0.766704,0.340140,0.218911,0.210184,1.094409,0.788103,0.581048,0.329909,0.267626,0.725690,0.360557,0.227361,0.258246,0.300991,0.946818,0.841111,1.436718,1.307900,1.551035,1.533818,1.046187,0.574885,1.253136,0.847025,1.324092,0.564203,0.161284,0.327298,0.126661,1.035727,0.600956,0.210347,0.251415,0.091730,0.276870,0.283346,0.094444,0.093770,0.040281,0.350160,0.584973,0.054724,0.169168,0.088014,1.165452,1.632202,1.543599,5.767549,1.465398,6.973056,5.706231,1.904912,1.699704,1.030285,0.080618,0.169609,0.086910,0.080431,0.099417,1.663411,1.212902,0.363201,0.365406,0.299912,0.638959,0.455546,0.234673,0.149291,0.088838
1605183912.703715,107.000000,0.000000,4143.974121,4192.820313,4146.538574,4147.307617,4157.563965,4163.333496,4159.615234,4173.077148,4164.871582,4160.384766,4154.230957,4136.666504,3992.564209,4158.461426,2049.000000,3.000000,,,,0.000000,4.000000,4.000000,4.000000,4.000000,4.000000,4.000000,4.000000,4.000000,4.000000,4.000000,4.000000,4.000000,4.000000,4.000000,100.000000,,,,,,,,,,,,,,,,,,,,,,,,,,,,,,,,,,,,,,,,,,,,,,,,,,,,,,,,,,,,,,,,,,,,,,
1605183912.711602,108.000000,0.000000,4143.589844,4194.871582,4148.974121,4131.153809,4156.410156,4161.794922,4161.666504,4174.487305,4167.692383,4131.538574,4148.205078,4136.666504,3986.025635,4155.000000,4101.000000,3.000000,,,,0.000000,4.000000,4.000000,4.000000,4.000000,4.000000,4.000000,4.000000,4.000000,4.000000,4.000000,4.000000,4.000000,4.000000,4.000000,100.000000,,,,,,,,,,,,,,,,,,,,,,,,,,,,,,,,,,,,,,,,,,,,,,,,,,,,,,,,,,,,,,,,,,,,,,
1605183912.719389,109.000000,0.000000,4151.153809,4190.256348,4155.384766,4152.307617,4134.487305,4158.974121,4161.410156,4172.179688,4168.589844,4136.922852,4156.538574,4138.846191,3992.179443,4155.000000,1901.000000,3.000000,,,,0.000000,4.000000,4.000000,4.000000,4.000000,4.000000,4.000000,4.000000,4.000000,4.000000,4.000000,4.000000,4.000000,4.000000,4.000000,100.000000,,,,,,,,,,,,,,,,,,,,,,,,,,,,,,,,,,,,,,,,,,,,,,,,,,,,,,,,,,,,,,,,,,,,,,
1605183912.727277,110.000000,0.000000,4148.589844,4177.948730,4149.487305,4157.563965,4135.384766,4158.205078,4155.897461,4170.897461,4168.461426,4174.102539,4150.897461,4140.897461,3994.487061,4153.333496,2536.000000,3.000000,,,,0.000000,4.000000,4.000000,4.000000,4.000000,4.000000,4.000000,4.000000,4.000000,4.000000,4.000000,4.000000,4.000000,4.000000,4.000000,100.000000,,,,,,,,,,,,,,,,,,,,,,,,,,,,,,,,,,,,,,,,,,,,,,,,,,,,,,,,,,,,,,,,,,,,,,
1605183912.735064,111.000000,0.000000,4145.128418,4177.948730,4144.743652,4123.205078,4167.820313,4164.615234,4156.282227,4173.461426,4170.384766,4184.871582,4154.102539,4142.179688,3998.205078,4155.769043,2049.000000,3.000000,,,,0.000000,4.000000,4.000000,4.000000,4.000000,4.000000,4.000000,4.000000,4.000000,4.000000,4.000000,4.000000,4.000000,4.000000,4.000000,100.000000,,,,,,,,,,,,,,,,,,,,,,,,,,,,,,,,,,,,,,,,,,,,,,,,,,,,,,,,,,,,,,,,,,,,,,
1605183912.742950,112.000000,0.000000,4148.333496,4182.820313,4154.230957,4112.051270,4175.128418,4163.974121,4156.282227,4172.436035,4170.641113,4169.358887,4163.717773,4143.717773,4000.384521,4158.974121,4101.000000,3.000000,,,,0.000000,4.000000,4.000000,4.000000,4.000000,4.000000,4.000000,4.000000,4.000000,4.000000,4.000000,4.000000,4.000000,4.000000,4.000000,100.000000,,,,,,,,,,,,,,,,,,,,,,,,,,,,,,,,,,,,,,,,,,,,,,,,,,,,,,,,,,,,,,,,,,,,,,
1605183912.750737,113.000000,0.000000,4156.025879,4188.333496,4162.307617,4151.922852,4157.051270,4160.128418,4154.871582,4168.974121,4171.025879,4174.358887,4170.384766,4142.692383,4000.641113,4158.974121,1901.000000,3.000000,,,,0.000000,4.000000,4.000000,4.000000,4.000000,4.000000,4.000000,4.000000,4.000000,4.000000,4.000000,4.000000,4.000000,4.000000,4.000000,100.000000,,,,,,,,,,,,,,,,,,,,,,,,,,,,,,,,,,,,,,,,,,,,,,,,,,,,,,,,,,,,,,,,,,,,,,
1605183912.758725,114.000000,0.000000,4155.769043,4193.974121,4150.641113,4170.256348,4147.563965,4156.794922,4150.897461,4165.641113,4172.948730,4157.179688,4162.948730,4135.384766,3999.743652,4155.384766,2536.000000,3.000000,,,,0.000000,4.000000,4.000000,4.000000,4.000000,4.000000,4.000000,4.000000,4.000000,4.000000,4.000000,4.000000,4.000000,4.000000,4.000000,100.000000,,,,,,,,,,,,,,,,,,,,,,,,,,,,,,,,,,,,,,,,,,,,,,,,,,,,,,,,,,,,,,,,,,,,,,
1605183912.766613,115.000000,0.000000,4154.102539,4199.230957,4146.794922,4154.358887,4154.102539,4161.666504,4153.974121,4169.358887,4183.205078,4142.692383,4163.077148,4134.358887,4000.641113,4158.589844,2049.000000,3.000000,,,,0.000000,4.000000,4.000000,4.000000,4.000000,4.000000,4.000000,4.000000,4.000000,4.000000,4.000000,4.000000,4.000000,4.000000,4.000000,100.000000,,,,,,,,,,,,,,,,,,,,,,,,,,,,,,,,,,,,,,,,,,,,,,,,,,,,,,,,,,,,,,,,,,,,,,
1605183912.774401,116.000000,0.000000,4152.692383,4187.820313,4152.820313,4149.358887,4145.769043,4159.871582,4156.282227,4172.051270,4188.461426,4159.871582,4158.461426,4138.846191,3995.897461,4157.820313,4101.000000,3.000000,,,,0.000000,4.000000,4.000000,4.000000,4.000000,4.000000,4.000000,4.000000,4.000000,4.000000,4.000000,4.000000,4.000000,4.000000,4.000000,100.000000,,,,,,,,,,,,,,,,,,,,,,,,,,,,,,,,,,,,,,,,,,,,,,,,,,,,,,,,,,,,,,,,,,,,,,
1605183912.782390,117.000000,0.000000,4160.897461,4191.538574,4158.333496,4167.179688,4142.051270,4164.230957,4164.487305,4175.000000,4196.666504,4176.538574,4173.846191,4142.820313,4005.769287,4159.487305,1901.000000,3.000000,,,,0.000000,4.000000,4.000000,4.000000,4.000000,4.000000,4.000000,4.000000,4.000000,4.000000,4.000000,4.000000,4.000000,4.000000,4.000000,100.000000,,,,,,,,,,,,,,,,,,,,,,,,,,,,,,,,,,,,,,,,,,,,,,,,,,,,,,,,,,,,,,,,,,,,,,
1605183912.790280,118.000000,0.000000,4161.282227,4202.436035,4155.128418,4153.717773,4155.512695,4168.333496,4165.641113,4173.077148,4198.589844,4172.948730,4188.077148,4138.846191,4012.051270,4159.102539,2536.000000,3.000000,,,,0.000000,4.000000,4.000000,4.000000,4.000000,4.000000,4.000000,4.000000,4.000000,4.000000,4.000000,4.000000,4.000000,4.000000,4.000000,100.000000,,,,,,,,,,,,,,,,,,,,,,,,,,,,,,,,,,,,,,,,,,,,,,,,,,,,,,,,,,,,,,,,,,,,,,
1605183912.798269,119.000000,0.000000,4149.743652,4194.743652,4148.461426,4128.077148,4166.794922,4162.307617,4155.769043,4169.102539,4191.922852,4153.974121,4169.487305,4135.641113,4000.512939,4151.153809,2049.000000,3.000000,,,,0.000000,4.000000,4.000000,4.000000,4.000000,4.000000,4.000000,4.000000,4.000000,4.000000,4.000000,4.000000,4.000000,4.000000,4.000000,100.000000,,,,,,,,,,,,,,,,,,,,,,,,,,,,,,,,,,,,,,,,,,,,,,,,,,,,,,,,,,,,,,,,,,,,,,
1605183912.806158,120.000000,0.000000,4140.897461,4185.897461,4143.077148,4135.000000,4156.153809,4149.871582,4147.307617,4165.641113,4189.358887,4129.615234,4141.025879,4133.205078,3987.051270,4144.743652,4101.000000,3.000000,,,,0.000000,4.000000,4.000000,4.000000,4.000000,4.000000,4.000000,4.000000,4.000000,4.000000,4.000000,4.000000,4.000000,4.000000,4.000000,100.000000,,,,,,,,,,,,,,,,,,,,,,,,,,,,,,,,,,,,,,,,,,,,,,,,,,,,,,,,,,,,,,,,,,,,,,
1605183912.814146,121.000000,0.000000,4152.051270,4202.436035,4152.436035,4158.205078,4161.410156,4157.820313,4157.051270,4171.025879,4207.563965,4147.563965,4147.820313,4135.641113,3989.615479,4152.307617,1901.000000,3.000000,,,,0.000000,4.000000,4.000000,4.000000,4.000000,4.000000,4.000000,4.000000,4.000000,4.000000,4.000000,4.000000,4.000000,4.000000,4.000000,100.000000,,,,,,,,,,,,,,,,,,,,,,,,,,,,,,,,,,,,,,,,,,,,,,,,,,,,,,,,,,,,,,,,,,,,,,
1605183912.822035,122.000000,0.000000,4152.179688,4211.153809,4150.512695,4152.820313,4175.641113,4171.153809,4162.307617,4171.666504,4213.589844,4186.282227,4159.615234,4136.922852,3992.564209,4150.641113,2536.000000,3.000000,,,,0.000000,4.000000,4.000000,4.000000,4.000000,4.000000,4.000000,4.000000,4.000000,4.000000,4.000000,4.000000,4.000000,4.000000,4.000000,100.000000,4.216715,0.859279,0.488556,0.252837,0.214228,1.260411,0.751589,0.652467,0.386916,0.268099,1.028563,0.354718,0.245027,0.241889,0.297371,1.021032,0.958192,1.353418,1.435141,1.601393,1.667214,1.141484,0.533867,1.281189,0.851697,1.297149,0.637718,0.172135,0.338731,0.123160,0.993940,0.628324,0.237100,0.259621,0.097205,0.287384,0.296993,0.088470,0.100539,0.035976,0.369484,0.599773,0.044323,0.173424,0.084829,1.458881,1.833313,1.837878,6.056909,1.449244,9.129672,7.176593,1.874129,1.764839,0.909493,0.125655,0.196265,0.083917,0.082425,0.091634,2.161597,1.484806,0.354641,0.377569,0.281482,1.033872,0.582712,0.229867,0.156882,0.093142
1605183912.830024,123.000000,0.000000,4143.974121,4211.794922,4142.563965,4148.333496,4181.410156,4179.230957,4166.282227,4170.384766,4208.333496,4190.000000,4170.000000,4139.102539,4001.538574,4146.153809,2049.000000,3.000000,,,,0.000000,4.000000,4.000000,4.000000,4.000000,4.000000,4.000000,4.000000,4.000000,4.000000,4.000000,4.000000,4.000000,4.000000,4.000000,100.000000,,,,,,,,,,,,,,,,,,,,,,,,,,,,,,,,,,,,,,,,,,,,,,,,,,,,,,,,,,,,,,,,,,,,,,
1605183912.837913,124.000000,0.000000,4145.384766,4217.179688,4146.922852,4160.128418,4189.358887,4179.615234,4168.589844,4171.922852,4212.051270,4176.025879,4185.897461,4138.205078,4009.615479,4152.692383,4101.000000,3.000000,,,,0.000000,4.000000,4.000000,4.000000,4.000000,4.000000,4.000000,4.000000,4.000000,4.000000,4.000000,4.000000,4.000000,4.000000,4.000000,100.000000,,,,,,,,,,,,,,,,,,,,,,,,,,,,,,,,,,,,,,,,,,,,,,,,,,,,,,,,,,,,,,,,,,,,,,
1605183912.845901,125.000000,0.000000,4156.025879,4227.692383,4154.871582,4172.307617,4198.974121,4180.000000,4166.025879,4174.615234,4219.615234,4187.692383,4191.794922,4139.487305,4008.461426,4161.153809,1901.000000,3.000000,,,,0.000000,4.000000,4.000000,4.000000,4.000000,4.000000,4.000000,4.000000,4.000000,4.000000,4.000000,4.000000,4.000000,4.000000,4.000000,100.000000,,,,,,,,,,,,,,,,,,,,,,,,,,,,,,,,,,,,,,,,,,,,,,,,,,,,,,,,,,,,,,,,,,,,,,
1605183912.853790,126.000000,0.000000,4159.871582,4234.230957,4157.436035,4176.794922,4185.897461,4179.743652,4165.000000,4174.102539,4216.410156,4187.179688,4195.384766,4141.153809,4007.948730,4160.512695,2536.000000,3.000000,,,,0.000000,4.000000,4.000000,4.000000,4.000000,4.000000,4.000000,4.000000,4.000000,4.000000,4.000000,4.000000,4.000000,4.000000,4.000000,100.000000,,,,,,,,,,,,,,,,,,,,,,,,,,,,,,,,,,,,,,,,,,,,,,,,,,,,,,,,,,,,,,,,,,,,,,
1605183912.861778,127.000000,0.000000,4154.358887,4224.487305,4159.487305,4171.410156,4166.153809,4173.333496,4167.436035,4175.769043,4214.230957,4166.794922,4198.589844,4140.384766,4013.589844,4160.000000,52.000000,3.000000,,,,0.000000,4.000000,4.000000,4.000000,4.000000,4.000000,4.000000,4.000000,4.000000,4.000000,4.000000,4.000000,4.000000,4.000000,4.000000,100.000000,,,,,,,,,,,,,,,,,,,,,,,,,,,,,,,,,,,,,,,,,,,,,,,,,,,,,,,,,,,,,,,,,,,,,,
1605183912.869667,0.000000,0.000000,4153.333496,4209.358887,4154.743652,4164.743652,4166.794922,4168.717773,4165.641113,4177.307617,4220.000000,4166.794922,4196.666504,4139.615234,4016.923096,4160.000000,2454.000000,3.000000,,,,0.000000,4.000000,4.000000,4.000000,4.000000,4.000000,4.000000,4.000000,4.000000,4.000000,4.000000,4.000000,4.000000,4.000000,4.000000,100.000000,,,,,,,,,,,,,,,,,,,,,,,,,,,,,,,,,,,,,,,,,,,,,,,,,,,,,,,,,,,,,,,,,,,,,,
1605183912.877655,1.000000,0.000000,4151.538574,4209.230957,4144.358887,4168.077148,4176.025879,4175.000000,4166.410156,4174.487305,4221.025879,4175.256348,4183.461426,4138.846191,4009.743652,4156.153809,2865.000000,3.000000,,,,0.000000,4.000000,4.000000,4.000000,4.000000,4.000000,4.000000,4.000000,4.000000,4.000000,4.000000,4.000000,4.000000,4.000000,4.000000,100.000000,,,,,,,,,,,,,,,,,,,,,,,,,,,,,,,,,,,,,,,,,,,,,,,,,,,,,,,,,,,,,,,,,,,,,,
1605183912.885543,2.000000,0.000000,4143.461426,4212.436035,4146.922852,4161.538574,4180.897461,4181.410156,4173.846191,4171.538574,4217.051270,4176.666504,4176.794922,4136.538574,4002.435791,4152.307617,2637.000000,3.000000,,,,0.000000,4.000000,4.000000,4.000000,4.000000,4.000000,4.000000,4.000000,4.000000,4.000000,4.000000,4.000000,4.000000,4.000000,4.000000,100.000000,,,,,,,,,,,,,,,,,,,,,,,,,,,,,,,,,,,,,,,,,,,,,,,,,,,,,,,,,,,,,,,,,,,,,,
1605183912.893531,3.000000,0.000000,4141.282227,4202.692383,4150.641113,4144.358887,4177.179688,4175.000000,4171.282227,4169.615234,4215.384766,4173.589844,4173.589844,4138.461426,4002.564209,4153.717773,2888.000000,3.000000,,,,0.000000,4.000000,4.000000,4.000000,4.000000,4.000000,4.000000,4.000000,4.000000,4.000000,4.000000,4.000000,4.000000,4.000000,4.000000,100.000000,,,,,,,,,,,,,,,,,,,,,,,,,,,,,,,,,,,,,,,,,,,,,,,,,,,,,,,,,,,,,,,,,,,,,,
1605183912.901419,4.000000,0.000000,4152.307617,4202.692383,4150.512695,4157.051270,4177.563965,4172.820313,4166.538574,4172.307617,4217.563965,4169.487305,4183.077148,4141.794922,4012.435791,4160.384766,3035.000000,3.000000,,,,0.000000,4.000000,4.000000,4.000000,4.000000,4.000000,4.000000,4.000000,4.000000,4.000000,4.000000,4.000000,4.000000,4.000000,4.000000,100.000000,,,,,,,,,,,,,,,,,,,,,,,,,,,,,,,,,,,,,,,,,,,,,,,,,,,,,,,,,,,,,,,,,,,,,,
1605183912.909207,5.000000,0.000000,4151.794922,4202.948730,4154.871582,4162.179688,4173.077148,4171.922852,4166.153809,4174.358887,4214.743652,4150.897461,4176.794922,4135.897461,4007.692383,4156.794922,2908.000000,3.000000,,,,0.000000,4.000000,4.000000,4.000000,4.000000,4.000000,4.000000,4.000000,4.000000,4.000000,4.000000,4.000000,4.000000,4.000000,4.000000,100.000000,,,,,,,,,,,,,,,,,,,,,,,,,,,,,,,,,,,,,,,,,,,,,,,,,,,,,,,,,,,,,,,,,,,,,,
1605183912.917095,6.000000,0.000000,4149.230957,4202.436035,4159.358887,4149.615234,4178.333496,4172.563965,4169.230957,4177.820313,4219.230957,4158.333496,4170.000000,4132.179688,4001.025635,4152.436035,2601.000000,3.000000,,,,0.000000,4.000000,4.000000,4.000000,4.000000,4.000000,4.000000,4.000000,4.000000,4.000000,4.000000,4.000000,4.000000,4.000000,4.000000,100.000000,,,,,,,,,,,,,,,,,,,,,,,,,,,,,,,,,,,,,,,,,,,,,,,,,,,,,,,,,,,,,,,,,,,,,,
1605183912.924883,7.000000,0.000000,4153.717773,4207.820313,4152.820313,4154.871582,4187.307617,4172.820313,4164.615234,4176.666504,4224.743652,4183.974121,4175.384766,4135.512695,4008.589844,4157.436035,1978.000000,3.000000,,,,0.000000,4.000000,4.000000,4.000000,4.000000,4.000000,4.000000,4.000000,4.000000,4.000000,4.000000,4.000000,4.000000,4.000000,4.000000,100.000000,,,,,,,,,,,,,,,,,,,,,,,,,,,,,,,,,,,,,,,,,,,,,,,,,,,,,,,,,,,,,,,,,,,,,,
1605183912.932771,8.000000,0.000000,4156.794922,4213.974121,4153.846191,4167.563965,4192.307617,4178.846191,4163.717773,4175.256348,4224.743652,4187.948730,4189.487305,4139.230957,4021.923096,4163.461426,2623.000000,3.000000,,,,0.000000,4.000000,4.000000,4.000000,4.000000,4.000000,4.000000,4.000000,4.000000,4.000000,4.000000,4.000000,4.000000,4.000000,4.000000,100.000000,,,,,,,,,,,,,,,,,,,,,,,,,,,,,,,,,,,,,,,,,,,,,,,,,,,,,,,,,,,,,,,,,,,,,,
1605183912.940559,9.000000,0.000000,4148.846191,4204.871582,4155.384766,4149.230957,4187.051270,4176.922852,4163.717773,4172.563965,4220.512695,4175.384766,4189.743652,4139.871582,4018.718018,4161.153809,2779.000000,3.000000,,,,0.000000,4.000000,4.000000,4.000000,4.000000,4.000000,4.000000,4.000000,4.000000,4.000000,4.000000,4.000000,4.000000,4.000000,4.000000,100.000000,,,,,,,,,,,,,,,,,,,,,,,,,,,,,,,,,,,,,,,,,,,,,,,,,,,,,,,,,,,,,,,,,,,,,,
1605183912.948447,10.000000,0.000000,4152.436035,4208.717773,4158.333496,4156.666504,4176.922852,4172.436035,4166.025879,4171.666504,4224.102539,4172.436035,4190.769043,4143.461426,4019.230713,4161.794922,2557.000000,3.000000,,,,0.000000,4.000000,4.000000,4.000000,4.000000,4.000000,4.000000,4.000000,4.000000,4.000000,4.000000,4.000000,4.000000,4.000000,4.000000,100.000000,6.009362,0.963990,0.639451,0.287763,0.221094,1.604481,0.743510,0.696713,0.458634,0.286659,1.337081,0.373534,0.269892,0.223613,0.296363,1.219004,1.115520,1.215253,1.683463,1.800363,1.947975,1.241271,0.574668,1.254253,0.868181,1.274735,0.742266,0.212230,0.346463,0.119512,0.978361,0.681123,0.278331,0.268808,0.102136,0.305704,0.316405,0.078753,0.110253,0.035915,0.431449,0.613296,0.037680,0.182439,0.090711,1.869844,1.990435,2.021249,5.944784,1.504356,12.234214,8.619279,1.758306,1.867468,0.859679,0.181563,0.219991,0.075893,0.089087,0.083353,2.930314,1.734870,0.335159,0.405550,0.275966,1.485377,0.699915,0.213619,0.164770,0.102796
1605183912.956234,11.000000,0.000000,4166.922852,4220.641113,4166.666504,4185.512695,4167.563965,4173.974121,4169.743652,4173.846191,4224.871582,4184.358887,4200.512695,4145.128418,4027.564209,4164.230957,2066.000000,3.000000,,,,0.000000,4.000000,4.000000,4.000000,4.000000,4.000000,4.000000,4.000000,4.000000,4.000000,4.000000,4.000000,4.000000,4.000000,4.000000,100.000000,,,,,,,,,,,,,,,,,,,,,,,,,,,,,,,,,,,,,,,,,,,,,,,,,,,,,,,,,,,,,,,,,,,,,,
1605183912.964122,12.000000,0.000000,4178.589844,4224.615234,4175.512695,4170.384766,4186.025879,4188.077148,4182.051270,4182.948730,4228.333496,4205.256348,4223.333496,4146.922852,4032.948730,4168.846191,4131.000000,3.000000,,,,0.000000,4.000000,4.000000,4.000000,4.000000,4.000000,4.000000,4.000000,4.000000,4.000000,4.000000,4.000000,4.000000,4.000000,4.000000,100.000000,,,,,,,,,,,,,,,,,,,,,,,,,,,,,,,,,,,,,,,,,,,,,,,,,,,,,,,,,,,,,,,,,,,,,,
1605183912.971910,13.000000,0.000000,4177.692383,4221.666504,4166.922852,4148.974121,4206.538574,4188.974121,4184.102539,4186.153809,4231.025879,4201.153809,4233.077148,4145.641113,4036.281982,4170.769043,1927.000000,3.000000,,,,0.000000,4.000000,4.000000,4.000000,4.000000,4.000000,4.000000,4.000000,4.000000,4.000000,4.000000,4.000000,4.000000,4.000000,4.000000,100.000000,,,,,,,,,,,,,,,,,,,,,,,,,,,,,,,,,,,,,,,,,,,,,,,,,,,,,,,,,,,,,,,,,,,,,,
1605183912.979797,14.000000,0.000000,4181.794922,4228.846191,4164.615234,4164.615234,4200.256348,4179.615234,4177.307617,4185.384766,4227.051270,4190.128418,4233.974121,4145.897461,4046.923096,4171.538574,2557.000000,3.000000,,,,0.000000,4.000000,4.000000,4.000000,4.000000,4.000000,4.000000,4.000000,4.000000,4.000000,4.000000,4.000000,4.000000,4.000000,4.000000,100.000000,,,,,,,,,,,,,,,,,,,,,,,,,,,,,,,,,,,,,,,,,,,,,,,,,,,,,,,,,,,,,,,,,,,,,,
1605183912.987585,15.000000,0.000000,4186.153809,4230.256348,4171.794922,4169.615234,4189.102539,4178.974121,4174.743652,4185.128418,4218.333496,4200.128418,4239.102539,4146.410156,4044.871826,4167.051270,2066.000000,3.000000,,,,0.000000,4.000000,4.000000,4.000000,4.000000,4.000000,4.000000,4.000000,4.000000,4.000000,4.000000,4.000000,4.000000,4.000000,4.000000,100.000000,,,,,,,,,,,,,,,,,,,,,,,,,,,,,,,,,,,,,,,,,,,,,,,,,,,,,,,,,,,,,,,,,,,,,,
1605183912.995472,16.000000,0.000000,4184.615234,4226.410156,4171.153809,4166.282227,4196.282227,4190.384766,4180.512695,4186.538574,4221.794922,4210.256348,4243.077148,4148.077148,4038.076904,4166.025879,0.000000,3.000000,,,,0.000000,4.000000,4.000000,4.000000,4.000000,4.000000,4.000000,4.000000,4.000000,4.000000,4.000000,4.000000,4.000000,4.000000,4.000000,100.000000,,,,,,,,,,,,,,,,,,,,,,,,,,,,,,,,,,,,,,,,,,,,,,,,,,,,,,,,,,,,,,,,,,,,,,
1605183913.003259,17.000000,0.000000,4188.589844,4233.205078,4176.153809,4182.692383,4206.794922,4198.333496,4188.205078,4190.256348,4230.512695,4196.922852,4254.358887,4147.692383,4050.000000,4171.282227,0.000000,3.000000,,,,0.000000,4.000000,4.000000,4.000000,4.000000,4.000000,4.000000,4.000000,4.000000,4.000000,4.000000,4.000000,4.000000,4.000000,4.000000,100.000000,,,,,,,,,,,,,,,,,,,,,,,,,,,,,,,,,,,,,,,,,,,,,,,,,,,,,,,,,,,,,,,,,,,,,,
1605183913.011147,18.000000,0.000000,4195.000000,4239.102539,4185.897461,4196.794922,4207.692383,4197.051270,4192.948730,4193.846191,4232.307617,4195.897461,4270.769043,4149.358887,4061.794922,4173.974121,0.000000,3.000000,,,,0.000000,4.000000,4.000000,4.000000,4.000000,4.000000,4.000000,4.000000,4.000000,4.000000,4.000000,4.000000,4.000000,4.000000,4.000000,100.000000,,,,,,,,,,,,,,,,,,,,,,,,,,,,,,,,,,,,,,,,,,,,,,,,,,,,,,,,,,,,,,,,,,,,,,
1605183913.018934,19.000000,0.000000,4193.589844,4236.025879,4180.128418,4188.333496,4200.641113,4195.256348,4192.051270,4190.512695,4230.512695,4215.256348,4277.820313,4149.615234,4059.615479,4172.563965,0.000000,3.000000,,,,0.000000,4.000000,4.000000,4.000000,4.000000,4.000000,4.000000,4.000000,4.000000,4.000000,4.000000,4.000000,4.000000,4.000000,4.000000,100.000000,,,,,,,,,,,,,,,,,,,,,,,,,,,,,,,,,,,,,,,,,,,,,,,,,,,,,,,,,,,,,,,,,,,,,,
1605183913.026922,20.000000,0.000000,4184.615234,4227.948730,4164.871582,4170.256348,4198.589844,4192.179688,4184.871582,4184.230957,4227.179688,4200.384766,4258.846191,4146.282227,4054.487061,4171.794922,0.000000,3.000000,,,,0.000000,4.000000,4.000000,4.000000,4.000000,4.000000,4.000000,4.000000,4.000000,4.000000,4.000000,4.000000,4.000000,4.000000,4.000000,100.000000,,,,,,,,,,,,,,,,,,,,,,,,,,,,,,,,,,,,,,,,,,,,,,,,,,,,,,,,,,,,,,,,,,,,,,
1605183913.034811,21.000000,0.000000,4184.358887,4227.692383,4165.897461,4167.179688,4213.589844,4196.025879,4189.230957,4188.461426,4232.179688,4177.179688,4252.051270,4148.717773,4057.179443,4174.743652,0.000000,3.000000,,,,0.000000,4.000000,4.000000,4.000000,4.000000,4.000000,4.000000,4.000000,4.000000,4.000000,4.000000,4.000000,4.000000,4.000000,4.000000,100.000000,,,,,,,,,,,,,,,,,,,,,,,,,,,,,,,,,,,,,,,,,,,,,,,,,,,,,,,,,,,,,,,,,,,,,,
1605183913.042699,22.000000,0.000000,4190.128418,4230.641113,4173.589844,4176.538574,4215.000000,4201.025879,4195.897461,4194.743652,4239.743652,4193.589844,4258.333496,4152.051270,4058.076904,4176.794922,0.000000,3.000000,,,,0.000000,4.000000,4.000000,4.000000,4.000000,4.000000,4.000000,4.000000,4.000000,4.000000,4.000000,4.000000,4.000000,4.000000,4.000000,100.000000,,,,,,,,,,,,,,,,,,,,,,,,,,,,,,,,,,,,,,,,,,,,,,,,,,,,,,,,,,,,,,,,,,,,,,
1605183913.050486,23.000000,0.000000,4198.077148,4234.230957,4176.538574,4181.025879,4210.641113,4202.436035,4197.179688,4192.307617,4240.897461,4223.717773,4276.153809,4150.769043,4065.897461,4180.897461,0.000000,3.000000,,,,0.000000,4.000000,4.000000,4.000000,4.000000,4.000000,4.000000,4.000000,4.000000,4.000000,4.000000,4.000000,4.000000,4.000000,4.000000,100.000000,,,,,,,,,,,,,,,,,,,,,,,,,,,,,,,,,,,,,,,,,,,,,,,,,,,,,,,,,,,,,,,,,,,,,,
1605183913.058373,24.000000,0.000000,4193.717773,4227.436035,4171.538574,4167.436035,4204.487305,4194.487305,4192.692383,4185.128418,4234.102539,4210.384766,4281.410156,4150.256348,4070.897461,4177.051270,0.000000,3.000000,,,,0.000000,4.000000,4.000000,4.000000,4.000000,4.000000,4.000000,4.000000,4.000000,4.000000,4.000000,4.000000,4.000000,4.000000,4.000000,100.000000,,,,,,,,,,,,,,,,,,,,,,,,,,,,,,,,,,,,,,,,,,,,,,,,,,,,,,,,,,,,,,,,,,,,,,
1605183913.066160,25.000000,0.000000,4194.358887,4225.641113,4172.179688,4172.948730,4196.153809,4196.794922,4197.051270,4187.179688,4237.948730,4197.948730,4277.179688,4152.692383,4071.794922,4174.615234,0.000000,3.000000,,,,0.000000,4.000000,4.000000,4.000000,4.000000,4.000000,4.000000,4.000000,4.000000,4.000000,4.000000,4.000000,4.000000,4.000000,4.000000,100.000000,,,,,,,,,,,,,,,,,,,,,,,,,,,,,,,,,,,,,,,,,,,,,,,,,,,,,,,,,,,,,,,,,,,,,,
1605183913.074046,26.000000,0.000000,4193.077148,4220.641113,4168.077148,4179.230957,4193.333496,4196.666504,4192.436035,4186.153809,4235.512695,4208.333496,4253.717773,4145.512695,4061.025635,4172.051270,0.000000,3.000000,,,,0.000000,4.000000,4.000000,4.000000,4.000000,4.000000,4.000000,4.000000,4.000000,4.000000,4.000000,4.000000,4.000000,4.000000,4.000000,100.000000,7.432874,1.017998,0.725358,0.312808,0.228245,2.048224,0.747552,0.709957,0.522906,0.319500,1.557483,0.388176,0.296933,0.210372,0.297497,1.472086,1.265124,1.095326,1.947713,2.170184,2.327582,1.292032,0.673538,1.173787,0.887931,1.255450,0.838497,0.275416,0.355204,0.114925,0.981286,0.723284,0.321800,0.284324,0.104422,0.315447,0.324328,0.066318,0.121549,0.038640,0.537695,0.611196,0.036166,0.199817,0.101699,2.313514,2.040871,2.020583,5.433386,1.630514,15.521182,9.405285,1.551436,2.018583,0.859294,0.231091,0.231670,0.063586,0.100800,0.075051,3.493525,1.855980,0.292723,0.454353,0.281578,1.858404,0.767937,0.187291,0.171842,0.114825
1605183913.081833,27.000000,0.000000,4184.871582,4213.846191,4159.358887,4164.230957,4202.948730,4189.230957,4182.948730,4180.769043,4229.102539,4212.051270,4238.974121,4142.692383,4054.615479,4169.358887,0.000000,3.000000,,,,0.000000,4.000000,4.000000,4.000000,4.000000,4.000000,4.000000,4.000000,4.000000,4.000000,4.000000,4.000000,4.000000,4.000000,4.000000,100.000000,,,,,,,,,,,,,,,,,,,,,,,,,,,,,,,,,,,,,,,,,,,,,,,,,,,,,,,,,,,,,,,,,,,,,,
1605183913.089621,28.000000,0.000000,4177.820313,4209.230957,4154.871582,4152.948730,4186.922852,4183.205078,4178.846191,4177.820313,4230.256348,4196.153809,4233.717773,4146.153809,4058.846191,4163.717773,0.000000,3.000000,,,,0.000000,4.000000,4.000000,4.000000,4.000000,4.000000,4.000000,4.000000,4.000000,4.000000,4.000000,4.000000,4.000000,4.000000,4.000000,100.000000,,,,,,,,,,,,,,,,,,,,,,,,,,,,,,,,,,,,,,,,,,,,,,,,,,,,,,,,,,,,,,,,,,,,,,
1605183913.097610,29.000000,0.000000,4184.102539,4215.641113,4162.179688,4169.487305,4182.436035,4194.487305,4185.000000,4183.205078,4239.230957,4194.871582,4231.410156,4146.025879,4064.487061,4161.666504,0.000000,3.000000,,,,0.000000,4.000000,4.000000,4.000000,4.000000,4.000000,4.000000,4.000000,4.000000,4.000000,4.000000,4.000000,4.000000,4.000000,4.000000,100.000000,,,,,,,,,,,,,,,,,,,,,,,,,,,,,,,,,,,,,,,,,,,,,,,,,,,,,,,,,,,,,,,,,,,,,,
1605183913.105499,30.000000,0.000000,4186.666504,4221.410156,4159.102539,4174.615234,4202.051270,4195.512695,4184.615234,4184.102539,4232.820313,4195.641113,4228.333496,4141.666504,4059.615479,4160.256348,0.000000,3.000000,,,,0.000000,4.000000,4.000000,4.000000,4.000000,4.000000,4.000000,4.000000,4.000000,4.000000,4.000000,4.000000,4.000000,4.000000,4.000000,100.000000,,,,,,,,,,,,,,,,,,,,,,,,,,,,,,,,,,,,,,,,,,,,,,,,,,,,,,,,,,,,,,,,,,,,,,
1605183913.113489,31.000000,0.000000,4187.436035,4225.512695,4156.538574,4170.000000,4198.333496,4186.410156,4184.743652,4184.743652,4229.487305,4179.615234,4227.692383,4144.615234,4055.512939,4164.102539,0.000000,3.000000,,,,0.000000,4.000000,4.000000,4.000000,4.000000,4.000000,4.000000,4.000000,4.000000,4.000000,4.000000,4.000000,4.000000,4.000000,4.000000,100.000000,,,,,,,,,,,,,,,,,,,,,,,,,,,,,,,,,,,,,,,,,,,,,,,,,,,,,,,,,,,,,,,,,,,,,,
1605183913.121380,32.000000,0.000000,4190.128418,4225.512695,4160.897461,4172.820313,4176.666504,4185.000000,4184.615234,4183.461426,4233.205078,4172.563965,4222.563965,4145.000000,4052.307617,4165.512695,0.000000,3.000000,,,,0.000000,4.000000,4.000000,4.000000,4.000000,4.000000,4.000000,4.000000,4.000000,4.000000,4.000000,4.000000,4.000000,4.000000,4.000000,100.000000,,,,,,,,,,,,,,,,,,,,,,,,,,,,,,,,,,,,,,,,,,,,,,,,,,,,,,,,,,,,,,,,,,,,,,
1605183913.129271,33.000000,0.000000,4196.794922,4233.589844,4167.179688,4178.846191,4187.307617,4196.282227,4186.794922,4182.563965,4234.743652,4200.512695,4229.871582,4144.487305,4058.718018,4168.333496,0.000000,3.000000,,,,0.000000,4.000000,4.000000,4.000000,4.000000,4.000000,4.000000,4.000000,4.000000,4.000000,4.000000,4.000000,4.000000,4.000000,4.000000,100.000000,,,,,,,,,,,,,,,,,,,,,,,,,,,,,,,,,,,,,,,,,,,,,,,,,,,,,,,,,,,,,,,,,,,,,,
1605183913.137162,34.000000,0.000000,4203.974121,4247.563965,4170.769043,4185.256348,4206.410156,4201.153809,4191.025879,4182.179688,4236.025879,4215.384766,4253.077148,4144.615234,4073.076904,4173.974121,0.000000,3.000000,,,,0.000000,4.000000,4.000000,4.000000,4.000000,4.000000,4.000000,4.000000,4.000000,4.000000,4.000000,4.000000,4.000000,4.000000,4.000000,100.000000,,,,,,,,,,,,,,,,,,,,,,,,,,,,,,,,,,,,,,,,,,,,,,,,,,,,,,,,,,,,,,,,,,,,,,
1605183913.144950,35.000000,0.000000,4207.436035,4253.974121,4172.179688,4196.538574,4212.436035,4202.179688,4194.230957,4184.358887,4250.128418,4198.717773,4266.153809,4146.410156,4083.076904,4177.563965,0.000000,3.000000,,,,0.000000,4.000000,4.000000,4.000000,4.000000,4.000000,4.000000,4.000000,4.000000,4.000000,4.000000,4.000000,4.000000,4.000000,4.000000,100.000000,,,,,,,,,,,,,,,,,,,,,,,,,,,,,,,,,,,,,,,,,,,,,,,,,,,,,,,,,,,,,,,,,,,,,,
1605183913.152940,36.000000,0.000000,4207.820313,4249.871582,4174.615234,4181.922852,4214.615234,4205.769043,4191.666504,4184.615234,4261.282227,4195.000000,4271.025879,4148.077148,4086.794922,4178.461426,0.000000,3.000000,,,,0.000000,4.000000,4.000000,4.000000,4.000000,4.000000,4.000000,4.000000,4.000000,4.000000,4.000000,4.000000,4.000000,4.000000,4.000000,100.000000,,,,,,,,,,,,,,,,,,,,,,,,,,,,,,,,,,,,,,,,,,,,,,,,,,,,,,,,,,,,,,,,,,,,,,
1605183913.160830,37.000000,0.000000,4211.538574,4244.871582,4178.717773,4168.846191,4201.794922,4200.641113,4188.717773,4184.358887,4260.897461,4212.436035,4274.487305,4150.641113,4089.358887,4181.794922,0.000000,3.000000,,,,0.000000,4.000000,4.000000,4.000000,4.000000,4.000000,4.000000,4.000000,4.000000,4.000000,4.000000,4.000000,4.000000,4.000000,4.000000,100.000000,,,,,,,,,,,,,,,,,,,,,,,,,,,,,,,,,,,,,,,,,,,,,,,,,,,,,,,,,,,,,,,,,,,,,,
1605183913.168720,38.000000,0.000000,4210.897461,4241.025879,4172.948730,4191.666504,4182.948730,4192.948730,4188.333496,4186.538574,4261.282227,4215.897461,4272.948730,4147.563965,4083.461426,4177.692383,0.000000,3.000000,,,,0.000000,4.000000,4.000000,4.000000,4.000000,4.000000,4.000000,4.000000,4.000000,4.000000,4.000000,4.000000,4.000000,4.000000,4.000000,100.000000,,,,,,,,,,,,,,,,,,,,,,,,,,,,,,,,,,,,,,,,,,,,,,,,,,,,,,,,,,,,,,,,,,,,,,
1605183913.176708,39.000000,0.000000,4199.358887,4231.410156,4159.487305,4187.563965,4183.846191,4192.692383,4184.743652,4183.974121,4259.871582,4186.282227,4248.461426,4144.102539,4069.487061,4167.563965,0.000000,3.000000,,,,0.000000,4.000000,4.000000,4.000000,4.000000,4.000000,4.000000,4.000000,4.000000,4.000000,4.000000,4.000000,4.000000,4.000000,4.000000,100.000000,,,,,,,,,,,,,,,,,,,,,,,,,,,,,,,,,,,,,,,,,,,,,,,,,,,,,,,,,,,,,,,,,,,,,,
1605183913.184597,40.000000,0.000000,4196.538574,4226.025879,4161.153809,4163.461426,4198.846191,4196.282227,4185.769043,4182.692383,4256.410156,4170.384766,4237.307617,4145.897461,4069.871826,4169.871582,0.000000,3.000000,,,,0.000000,4.000000,4.000000,4.000000,4.000000,4.000000,4.000000,4.000000,4.000000,4.000000,4.000000,4.000000,4.000000,4.000000,4.000000,100.000000,,,,,,,,,,,,,,,,,,,,,,,,,,,,,,,,,,,,,,,,,,,,,,,,,,,,,,,,,,,,,,,,,,,,,,
1605183913.192585,41.000000,0.000000,4199.615234,4222.563965,4167.692383,4174.230957,4197.948730,4192.820313,4186.922852,4185.384766,4250.384766,4191.666504,4244.358887,4146.410156,4074.615479,4174.743652,0.000000,3.000000,,,,0.000000,4.000000,4.000000,4.000000,4.000000,4.000000,4.000000,4.000000,4.000000,4.000000,4.000000,4.000000,4.000000,4.000000,4.000000,100.000000,,,,,,,,,,,,,,,,,,,,,,,,,,,,,,,,,,,,,,,,,,,,,,,,,,,,,,,,,,,,,,,,,,,,,,
1605183913.200473,42.000000,0.000000,4202.563965,4227.307617,4167.051270,4197.820313,4194.487305,4195.897461,4190.641113,4186.282227,4247.820313,4219.358887,4252.563965,4147.051270,4074.743652,4175.128418,0.000000,3.000000,,,,0.000000,4.000000,4.000000,4.000000,4.000000,4.000000,4.000000,4.000000,4.000000,4.000000,4.000000,4.000000,4.000000,4.000000,4.000000,100.000000,7.963125,0.995171,0.717354,0.321296,0.233513,2.540377,0.743825,0.706915,0.557882,0.356408,1.625216,0.375901,0.323225,0.207424,0.297645,1.718350,1.361029,1.068826,2.139432,2.653046,2.697416,1.268501,0.793423,1.063341,0.902800,1.247705,0.881100,0.344968,0.369681,0.110420,0.990008,0.716221,0.351121,0.308090,0.103476,0.310353,0.306819,0.054320,0.131684,0.041874,0.687130,0.585168,0.040301,0.224500,0.112702,2.672493,1.989850,1.828209,4.680694,1.799227,17.702084,9.180313,1.319788,2.198205,0.874007,0.257751,0.226414,0.049215,0.116261,0.066923,3.818570,1.797643,0.245194,0.519388,0.293273,2.010998,0.769388,0.159187,0.176404,0.125685
1605183913.208461,43.000000,0.000000,4205.256348,4230.256348,4165.128418,4191.538574,4194.102539,4198.461426,4192.307617,4183.205078,4243.717773,4209.615234,4249.487305,4147.948730,4072.435791,4175.641113,0.000000,3.000000,,,,0.000000,4.000000,4.000000,4.000000,4.000000,4.000000,4.000000,4.000000,4.000000,4.000000,4.000000,4.000000,4.000000,4.000000,4.000000,100.000000,,,,,,,,,,,,,,,,,,,,,,,,,,,,,,,,,,,,,,,,,,,,,,,,,,,,,,,,,,,,,,,,,,,,,,
1605183913.216349,44.000000,0.000000,4215.769043,4235.769043,4173.205078,4187.563965,4202.307617,4201.282227,4195.512695,4186.538574,4246.666504,4201.538574,4269.230957,4150.769043,4085.384521,4182.179688,0.000000,3.000000,,,,0.000000,4.000000,4.000000,4.000000,4.000000,4.000000,4.000000,4.000000,4.000000,4.000000,4.000000,4.000000,4.000000,4.000000,4.000000,100.000000,,,,,,,,,,,,,,,,,,,,,,,,,,,,,,,,,,,,,,,,,,,,,,,,,,,,,,,,,,,,,,,,,,,,,,
1605183913.224137,45.000000,0.000000,4219.487305,4239.871582,4174.230957,4185.641113,4210.897461,4203.333496,4194.743652,4188.589844,4251.282227,4216.410156,4285.897461,4150.641113,4098.205078,4183.333496,0.000000,3.000000,,,,0.000000,4.000000,4.000000,4.000000,4.000000,4.000000,4.000000,4.000000,4.000000,4.000000,4.000000,4.000000,4.000000,4.000000,4.000000,100.000000,,,,,,,,,,,,,,,,,,,,,,,,,,,,,,,,,,,,,,,,,,,,,,,,,,,,,,,,,,,,,,,,,,,,,,
1605183913.232025,46.000000,0.000000,4226.282227,4254.615234,4176.538574,4196.025879,4212.948730,4208.846191,4196.922852,4188.846191,4252.948730,4226.410156,4289.743652,4153.717773,4104.358887,4186.794922,0.000000,3.000000,,,,0.000000,4.000000,4.000000,4.000000,4.000000,4.000000,4.000000,4.000000,4.000000,4.000000,4.000000,4.000000,4.000000,4.000000,4.000000,100.000000,,,,,,,,,,,,,,,,,,,,,,,,,,,,,,,,,,,,,,,,,,,,,,,,,,,,,,,,,,,,,,,,,,,,,,
1605183913.239813,47.000000,0.000000,4232.692383,4262.820313,4183.461426,4211.410156,4200.769043,4206.153809,4195.769043,4187.051270,4247.436035,4207.692383,4295.897461,4156.025879,4105.384766,4191.410156,0.000000,3.000000,,,,0.000000,4.000000,4.000000,4.000000,4.000000,4.000000,4.000000,4.000000,4.000000,4.000000,4.000000,4.000000,4.000000,4.000000,4.000000,100.000000,,,,,,,,,,,,,,,,,,,,,,,,,,,,,,,,,,,,,,,,,,,,,,,,,,,,,,,,,,,,,,,,,,,,,,
1605183913.247701,48.000000,0.000000,4235.641113,4260.384766,4188.461426,4202.820313,4202.051270,4203.717773,4195.897461,4189.102539,4250.000000,4203.717773,4312.051270,4159.871582,4111.282227,4193.589844,0.000000,3.000000,,,,0.000000,4.000000,4.000000,4.000000,4.000000,4.000000,4.000000,4.000000,4.000000,4.000000,4.000000,4.000000,4.000000,4.000000,4.000000,100.000000,,,,,,,,,,,,,,,,,,,,,,,,,,,,,,,,,,,,,,,,,,,,,,,,,,,,,,,,,,,,,,,,,,,,,,
1605183913.255488,49.000000,0.000000,4232.436035,4250.128418,4183.589844,4187.051270,4206.794922,4198.717773,4190.769043,4186.922852,4248.717773,4214.487305,4307.436035,4159.487305,4110.128418,4192.051270,0.000000,3.000000,,,,0.000000,4.000000,4.000000,4.000000,4.000000,4.000000,4.000000,4.000000,4.000000,4.000000,4.000000,4.000000,4.000000,4.000000,4.000000,100.000000,,,,,,,,,,,,,,,,,,,,,,,,,,,,,,,,,,,,,,,,,,,,,,,,,,,,,,,,,,,,,,,,,,,,,,
1605183913.263376,50.000000,0.000000,4231.538574,4243.589844,4177.948730,4193.846191,4203.717773,4198.333496,4187.820313,4184.102539,4239.743652,4202.436035,4292.948730,4154.358887,4108.461426,4191.538574,0.000000,3.000000,,,,0.000000,4.000000,4.000000,4.000000,4.000000,4.000000,4.000000,4.000000,4.000000,4.000000,4.000000,4.000000,4.000000,4.000000,4.000000,100.000000,,,,,,,,,,,,,,,,,,,,,,,,,,,,,,,,,,,,,,,,,,,,,,,,,,,,,,,,,,,,,,,,,,,,,,
1605183913.271164,51.000000,0.000000,4231.794922,4247.563965,4174.102539,4203.333496,4202.563965,4203.205078,4192.692383,4188.205078,4243.589844,4197.051270,4290.769043,4151.794922,4103.461426,4188.461426,0.000000,3.000000,,,,0.000000,4.000000,4.000000,4.000000,4.000000,4.000000,4.000000,4.000000,4.000000,4.000000,4.000000,4.000000,4.000000,4.000000,4.000000,100.000000,,,,,,,,,,,,,,,,,,,,,,,,,,,,,,,,,,,,,,,,,,,,,,,,,,,,,,,,,,,,,,,,,,,,,,
1605183913.279051,52.000000,0.000000,4231.282227,4254.102539,4175.897461,4211.282227,4201.538574,4209.230957,4203.717773,4197.051270,4259.487305,4229.871582,4295.128418,4156.025879,4096.282227,4185.256348,0.000000,3.000000,,,,0.000000,4.000000,4.000000,4.000000,4.000000,4.000000,4.000000,4.000000,4.000000,4.000000,4.000000,4.000000,4.000000,4.000000,4.000000,100.000000,,,,,,,,,,,,,,,,,,,,,,,,,,,,,,,,,,,,,,,,,,,,,,,,,,,,,,,,,,,,,,,,,,,,,,
1605183913.286839,53.000000,0.000000,4226.153809,4245.384766,4176.794922,4211.282227,4194.743652,4210.769043,4211.153809,4196.025879,4255.128418,4238.589844,4297.307617,4157.179688,4098.205078,4181.153809,0.000000,3.000000,,,,0.000000,4.000000,4.000000,4.000000,4.000000,4.000000,4.000000,4.000000,4.000000,4.000000,4.000000,4.000000,4.000000,4.000000,4.000000,100.000000,,,,,,,,,,,,,,,,,,,,,,,,,,,,,,,,,,,,,,,,,,,,,,,,,,,,,,,,,,,,,,,,,,,,,,
1605183913.294726,54.000000,0.000000,4220.384766,4236.025879,4172.692383,4200.384766,4200.897461,4210.897461,4213.077148,4193.846191,4248.461426,4215.769043,4292.307617,4155.512695,4103.205078,4177.692383,0.000000,3.000000,,,,0.000000,4.000000,4.000000,4.000000,4.000000,4.000000,4.000000,4.000000,4.000000,4.000000,4.000000,4.000000,4.000000,4.000000,4.000000,100.000000,,,,,,,,,,,,,,,,,,,,,,,,,,,,,,,,,,,,,,,,,,,,,,,,,,,,,,,,,,,,,,,,,,,,,,
1605183913.302513,55.000000,0.000000,4221.794922,4240.641113,4173.589844,4201.153809,4210.512695,4209.743652,4210.000000,4200.641113,4254.871582,4216.538574,4296.025879,4156.922852,4104.230957,4179.358887,0.000000,3.000000,,,,0.000000,4.000000,4.000000,4.000000,4.000000,4.000000,4.000000,4.000000,4.000000,4.000000,4.000000,4.000000,4.000000,4.000000,4.000000,100.000000,,,,,,,,,,,,,,,,,,,,,,,,,,,,,,,,,,,,,,,,,,,,,,,,,,,,,,,,,,,,,,,,,,,,,,
1605183913.310401,56.000000,0.000000,4218.333496,4237.820313,4173.333496,4202.820313,4196.025879,4204.487305,4204.615234,4198.717773,4248.974121,4218.333496,4293.077148,4156.025879,4103.974121,4181.922852,0.000000,3.000000,,,,0.000000,4.000000,4.000000,4.000000,4.000000,4.000000,4.000000,4.000000,4.000000,4.000000,4.000000,4.000000,4.000000,4.000000,4.000000,100.000000,,,,,,,,,,,,,,,,,,,,,,,,,,,,,,,,,,,,,,,,,,,,,,,,,,,,,,,,,,,,,,,,,,,,,,
1605183913.318188,57.000000,0.000000,4217.179688,4235.512695,4171.922852,4194.487305,4193.205078,4207.692383,4205.384766,4189.871582,4237.051270,4208.333496,4288.077148,4154.230957,4111.282227,4183.333496,0.000000,3.000000,,,,0.000000,4.000000,4.000000,4.000000,4.000000,4.000000,4.000000,4.000000,4.000000,4.000000,4.000000,4.000000,4.000000,4.000000,4.000000,100.000000,,,,,,,,,,,,,,,,,,,,,,,,,,,,,,,,,,,,,,,,,,,,,,,,,,,,,,,,,,,,,,,,,,,,,,
1605183913.326075,58.000000,0.000000,4225.256348,4245.256348,4177.051270,4192.563965,4209.871582,4210.897461,4201.666504,4188.846191,4238.717773,4203.205078,4284.615234,4158.461426,4111.794922,4186.282227,0.000000,3.000000,,,,0.000000,4.000000,4.000000,4.000000,4.000000,4.000000,4.000000,4.000000,4.000000,4.000000,4.000000,4.000000,4.000000,4.000000,4.000000,100.000000,7.457944,0.914532,0.632142,0.314303,0.235528,3.054228,0.722783,0.707531,0.554364,0.384954,1.522162,0.334220,0.345821,0.216939,0.292905,1.932924,1.385841,1.174979,2.204446,3.119064,3.119554,1.186014,0.899250,0.953645,0.903881,1.328237,0.844155,0.400159,0.388619,0.108644,1.055633,0.646822,0.352989,0.335858,0.100227,0.293176,0.262926,0.046256,0.137884,0.043969,0.874530,0.540575,0.048642,0.250745,0.120179,2.944499,1.896786,1.513384,3.904947,1.959161,18.521982,8.044715,1.147008,2.360467,0.874626,0.256891,0.206591,0.036412,0.131577,0.059383,3.710779,1.585979,0.213768,0.585199,0.304526,1.892887,0.716405,0.139981,0.175849,0.132327
1605183913.333862,59.000000,0.000000,4237.051270,4257.307617,4185.512695,4211.538574,4212.436035,4211.538574,4200.769043,4192.948730,4249.487305,4211.282227,4295.769043,4161.282227,4107.692383,4189.358887,0.000000,3.000000,,,,0.000000,4.000000,4.000000,4.000000,4.000000,4.000000,4.000000,4.000000,4.000000,4.000000,4.000000,4.000000,4.000000,4.000000,4.000000,100.000000,,,,,,,,,,,,,,,,,,,,,,,,,,,,,,,,,,,,,,,,,,,,,,,,,,,,,,,,,,,,,,,,,,,,,,
1605183913.341749,60.000000,0.000000,4237.563965,4258.077148,4184.487305,4221.153809,4201.538574,4213.333496,4206.025879,4190.256348,4249.487305,4225.897461,4295.256348,4157.820313,4104.102539,4186.025879,0.000000,3.000000,,,,0.000000,4.000000,4.000000,4.000000,4.000000,4.000000,4.000000,4.000000,4.000000,4.000000,4.000000,4.000000,4.000000,4.000000,4.000000,100.000000,,,,,,,,,,,,,,,,,,,,,,,,,,,,,,,,,,,,,,,,,,,,,,,,,,,,,,,,,,,,,,,,,,,,,,
1605183913.349536,61.000000,0.000000,4238.717773,4257.179688,4184.102539,4214.230957,4217.436035,4223.717773,4211.794922,4187.948730,4248.077148,4243.717773,4296.153809,4157.307617,4113.333496,4188.589844,0.000000,3.000000,,,,0.000000,4.000000,4.000000,4.000000,4.000000,4.000000,4.000000,4.000000,4.000000,4.000000,4.000000,4.000000,4.000000,4.000000,4.000000,100.000000,,,,,,,,,,,,,,,,,,,,,,,,,,,,,,,,,,,,,,,,,,,,,,,,,,,,,,,,,,,,,,,,,,,,,,
