title:club, start timestamp:1605179097.029063, stop timestamp:1605179157.732675, headset type:EPOCPLUS, headset serial:3B9AEC95, headset firmware:625, channels:108, sampling rate:eeg_128;pow_8, samples:7704      , version:2.0
Timestamp,EEG.Counter,EEG.Interpolated,EEG.AF3,EEG.F7,EEG.F3,EEG.FC5,EEG.T7,EEG.P7,EEG.O1,EEG.O2,EEG.P8,EEG.T8,EEG.FC6,EEG.F4,EEG.F8,EEG.AF4,EEG.RawCq,EEG.Battery,MarkerIndex,MarkerType,MarkerValueInt,EEG.MarkerHardware,CQ.AF3,CQ.F7,CQ.F3,CQ.FC5,CQ.T7,CQ.P7,CQ.O1,CQ.O2,CQ.P8,CQ.T8,CQ.FC6,CQ.F4,CQ.F8,CQ.AF4,CQ.Overall,POW.AF3.Theta,POW.AF3.Alpha,POW.AF3.BetaL,POW.AF3.BetaH,POW.AF3.Gamma,POW.F7.Theta,POW.F7.Alpha,POW.F7.BetaL,POW.F7.BetaH,POW.F7.Gamma,POW.F3.Theta,POW.F3.Alpha,POW.F3.BetaL,POW.F3.BetaH,POW.F3.Gamma,POW.FC5.Theta,POW.FC5.Alpha,POW.FC5.BetaL,POW.FC5.BetaH,POW.FC5.Gamma,POW.T7.Theta,POW.T7.Alpha,POW.T7.BetaL,POW.T7.BetaH,POW.T7.Gamma,POW.P7.Theta,POW.P7.Alpha,POW.P7.BetaL,POW.P7.BetaH,POW.P7.Gamma,POW.O1.Theta,POW.O1.Alpha,POW.O1.BetaL,POW.O1.BetaH,POW.O1.Gamma,POW.O2.Theta,POW.O2.Alpha,POW.O2.BetaL,POW.O2.BetaH,POW.O2.Gamma,POW.P8.Theta,POW.P8.Alpha,POW.P8.BetaL,POW.P8.BetaH,POW.P8.Gamma,POW.T8.Theta,POW.T8.Alpha,POW.T8.BetaL,POW.T8.BetaH,POW.T8.Gamma,POW.FC6.Theta,POW.FC6.Alpha,POW.FC6.BetaL,POW.FC6.BetaH,POW.FC6.Gamma,POW.F4.Theta,POW.F4.Alpha,POW.F4.BetaL,POW.F4.BetaH,POW.F4.Gamma,POW.F8.Theta,POW.F8.Alpha,POW.F8.BetaL,POW.F8.BetaH,POW.F8.Gamma,POW.AF4.Theta,POW.AF4.Alpha,POW.AF4.BetaL,POW.AF4.BetaH,POW.AF4.Gamma
1605179097.029063,49.000000,0.000000,4399.615234,4265.769043,4235.897461,4228.077148,4250.384766,4234.230957,4229.743652,4208.205078,4225.384766,4239.871582,4298.974121,4179.102539,4497.307617,4254.615234,0.000000,3.000000,,,,0.000000,4.000000,4.000000,4.000000,4.000000,4.000000,4.000000,4.000000,4.000000,4.000000,4.000000,4.000000,4.000000,4.000000,4.000000,100.000000,,,,,,,,,,,,,,,,,,,,,,,,,,,,,,,,,,,,,,,,,,,,,,,,,,,,,,,,,,,,,,,,,,,,,,
1605179097.037046,50.000000,0.000000,4396.666504,4262.563965,4236.025879,4228.333496,4252.179688,4240.128418,4232.436035,4211.538574,4232.307617,4259.487305,4291.538574,4178.205078,4492.820313,4252.179688,0.000000,3.000000,,,,0.000000,4.000000,4.000000,4.000000,4.000000,4.000000,4.000000,4.000000,4.000000,4.000000,4.000000,4.000000,4.000000,4.000000,4.000000,100.000000,,,,,,,,,,,,,,,,,,,,,,,,,,,,,,,,,,,,,,,,,,,,,,,,,,,,,,,,,,,,,,,,,,,,,,
1605179097.044929,51.000000,0.000000,4393.461426,4261.025879,4235.641113,4225.128418,4250.512695,4241.538574,4235.128418,4212.307617,4234.615234,4259.102539,4291.153809,4175.769043,4497.179688,4246.666504,0.000000,3.000000,,,,0.000000,4.000000,4.000000,4.000000,4.000000,4.000000,4.000000,4.000000,4.000000,4.000000,4.000000,4.000000,4.000000,4.000000,4.000000,100.000000,,,,,,,,,,,,,,,,,,,,,,,,,,,,,,,,,,,,,,,,,,,,,,,,,,,,,,,,,,,,,,,,,,,,,,
1605179097.052912,52.000000,0.000000,4392.948730,4263.205078,4236.282227,4227.692383,4247.948730,4237.948730,4232.179688,4210.897461,4229.358887,4257.563965,4296.025879,4179.743652,4505.128418,4253.205078,0.000000,3.000000,,,,0.000000,4.000000,4.000000,4.000000,4.000000,4.000000,4.000000,4.000000,4.000000,4.000000,4.000000,4.000000,4.000000,4.000000,4.000000,100.000000,,,,,,,,,,,,,,,,,,,,,,,,,,,,,,,,,,,,,,,,,,,,,,,,,,,,,,,,,,,,,,,,,,,,,,
1605179097.060795,53.000000,0.000000,4395.384766,4259.102539,4236.025879,4226.025879,4247.307617,4234.871582,4227.692383,4206.666504,4220.897461,4251.153809,4293.717773,4180.512695,4499.615234,4254.230957,0.000000,3.000000,,,,0.000000,4.000000,4.000000,4.000000,4.000000,4.000000,4.000000,4.000000,4.000000,4.000000,4.000000,4.000000,4.000000,4.000000,4.000000,100.000000,,,,,,,,,,,,,,,,,,,,,,,,,,,,,,,,,,,,,,,,,,,,,,,,,,,,,,,,,,,,,,,,,,,,,,
1605179097.068778,54.000000,0.000000,4392.948730,4259.230957,4235.512695,4223.589844,4248.589844,4241.922852,4232.179688,4212.179688,4229.487305,4247.948730,4292.948730,4176.153809,4493.717773,4247.692383,0.000000,3.000000,,,,0.000000,4.000000,4.000000,4.000000,4.000000,4.000000,4.000000,4.000000,4.000000,4.000000,4.000000,4.000000,4.000000,4.000000,4.000000,100.000000,,,,,,,,,,,,,,,,,,,,,,,,,,,,,,,,,,,,,,,,,,,,,,,,,,,,,,,,,,,,,,,,,,,,,,
1605179097.076661,55.000000,0.000000,4387.820313,4262.948730,4239.871582,4224.487305,4244.230957,4243.077148,4233.461426,4215.641113,4235.641113,4253.333496,4290.641113,4176.922852,4490.256348,4249.358887,0.000000,3.000000,,,,0.000000,4.000000,4.000000,4.000000,4.000000,4.000000,4.000000,4.000000,4.000000,4.000000,4.000000,4.000000,4.000000,4.000000,4.000000,100.000000,,,,,,,,,,,,,,,,,,,,,,,,,,,,,,,,,,,,,,,,,,,,,,,,,,,,,,,,,,,,,,,,,,,,,,
1605179097.084444,56.000000,0.000000,4397.948730,4265.256348,4240.000000,4224.871582,4238.846191,4232.820313,4226.282227,4202.563965,4219.358887,4246.025879,4283.077148,4181.666504,4487.436035,4254.102539,0.000000,3.000000,,,,0.000000,4.000000,4.000000,4.000000,4.000000,4.000000,4.000000,4.000000,4.000000,4.000000,4.000000,4.000000,4.000000,4.000000,4.000000,100.000000,,,,,,,,,,,,,,,,,,,,,,,,,,,,,,,,,,,,,,,,,,,,,,,,,,,,,,,,,,,,,,,,,,,,,,
1605179097.092326,57.000000,0.000000,4407.436035,4265.128418,4239.487305,4222.948730,4238.589844,4231.922852,4227.692383,4197.820313,4212.692383,4232.436035,4288.205078,4185.256348,4491.794922,4256.922852,0.000000,3.000000,,,,0.000000,4.000000,4.000000,4.000000,4.000000,4.000000,4.000000,4.000000,4.000000,4.000000,4.000000,4.000000,4.000000,4.000000,4.000000,100.000000,3.529332,3.335479,0.425333,0.521773,0.751810,1.666547,0.612441,0.284443,0.231753,0.200311,0.541213,0.606072,0.096135,0.117838,0.086050,1.643949,1.075238,0.276177,0.329792,0.181243,2.362752,0.649952,0.588003,0.313731,0.312806,0.838237,0.340513,0.289760,0.190886,0.164489,0.361690,0.212086,0.142116,0.157481,0.078762,0.810712,0.274019,0.338807,0.381485,0.212708,1.842942,0.667521,0.638491,0.796166,0.365436,3.592863,1.403533,1.124249,0.936453,0.886763,5.154773,1.717013,0.884442,0.765495,0.695040,0.757555,0.556505,0.150415,0.183637,0.174874,1.490407,0.420966,0.375239,0.238945,0.281683,1.267778,1.218064,0.269606,0.306422,0.278010
1605179097.100109,58.000000,0.000000,4398.077148,4263.589844,4242.563965,4224.230957,4244.743652,4240.256348,4233.589844,4210.897461,4227.563965,4247.051270,4297.820313,4190.769043,4496.410156,4262.948730,0.000000,3.000000,,,,0.000000,4.000000,4.000000,4.000000,4.000000,4.000000,4.000000,4.000000,4.000000,4.000000,4.000000,4.000000,4.000000,4.000000,4.000000,100.000000,,,,,,,,,,,,,,,,,,,,,,,,,,,,,,,,,,,,,,,,,,,,,,,,,,,,,,,,,,,,,,,,,,,,,,
1605179097.108093,59.000000,0.000000,4385.641113,4256.153809,4238.974121,4217.948730,4243.589844,4234.743652,4228.205078,4210.512695,4228.717773,4262.820313,4283.589844,4187.179688,4484.871582,4257.051270,0.000000,3.000000,,,,0.000000,4.000000,4.000000,4.000000,4.000000,4.000000,4.000000,4.000000,4.000000,4.000000,4.000000,4.000000,4.000000,4.000000,4.000000,100.000000,,,,,,,,,,,,,,,,,,,,,,,,,,,,,,,,,,,,,,,,,,,,,,,,,,,,,,,,,,,,,,,,,,,,,,
1605179097.115976,60.000000,0.000000,4388.333496,4258.333496,4238.333496,4213.461426,4239.358887,4236.153809,4229.615234,4205.641113,4224.102539,4258.974121,4276.282227,4183.589844,4477.436035,4254.487305,0.000000,3.000000,,,,0.000000,4.000000,4.000000,4.000000,4.000000,4.000000,4.000000,4.000000,4.000000,4.000000,4.000000,4.000000,4.000000,4.000000,4.000000,100.000000,,,,,,,,,,,,,,,,,,,,,,,,,,,,,,,,,,,,,,,,,,,,,,,,,,,,,,,,,,,,,,,,,,,,,,
1605179097.123960,61.000000,0.000000,4397.051270,4273.077148,4250.000000,4228.077148,4245.128418,4252.051270,4240.384766,4218.717773,4240.384766,4259.871582,4303.846191,4191.410156,4490.897461,4266.025879,0.000000,3.000000,,,,0.000000,4.000000,4.000000,4.000000,4.000000,4.000000,4.000000,4.000000,4.000000,4.000000,4.000000,4.000000,4.000000,4.000000,4.000000,100.000000,,,,,,,,,,,,,,,,,,,,,,,,,,,,,,,,,,,,,,,,,,,,,,,,,,,,,,,,,,,,,,,,,,,,,,
1605179097.131843,62.000000,0.000000,4398.333496,4273.717773,4252.820313,4234.358887,4246.025879,4247.051270,4236.410156,4222.436035,4249.358887,4260.128418,4312.692383,4193.461426,4495.000000,4265.769043,0.000000,3.000000,,,,0.000000,4.000000,4.000000,4.000000,4.000000,4.000000,4.000000,4.000000,4.000000,4.000000,4.000000,4.000000,4.000000,4.000000,4.000000,100.000000,,,,,,,,,,,,,,,,,,,,,,,,,,,,,,,,,,,,,,,,,,,,,,,,,,,,,,,,,,,,,,,,,,,,,,
1605179097.139827,63.000000,0.000000,4396.025879,4266.282227,4244.358887,4223.717773,4238.974121,4236.922852,4230.897461,4214.102539,4238.077148,4265.384766,4298.461426,4188.589844,4488.589844,4257.948730,0.000000,3.000000,,,,0.000000,4.000000,4.000000,4.000000,4.000000,4.000000,4.000000,4.000000,4.000000,4.000000,4.000000,4.000000,4.000000,4.000000,4.000000,100.000000,,,,,,,,,,,,,,,,,,,,,,,,,,,,,,,,,,,,,,,,,,,,,,,,,,,,,,,,,,,,,,,,,,,,,,
1605179097.147710,64.000000,0.000000,4391.538574,4262.948730,4240.128418,4217.948730,4238.846191,4243.461426,4236.922852,4212.563965,4229.615234,4261.794922,4286.410156,4185.897461,4487.307617,4256.282227,1654.000000,3.000000,,,,0.000000,4.000000,4.000000,4.000000,4.000000,4.000000,4.000000,4.000000,4.000000,4.000000,4.000000,4.000000,4.000000,4.000000,4.000000,100.000000,,,,,,,,,,,,,,,,,,,,,,,,,,,,,,,,,,,,,,,,,,,,,,,,,,,,,,,,,,,,,,,,,,,,,,
1605179097.155693,65.000000,0.000000,4394.487305,4263.717773,4241.922852,4223.461426,4249.743652,4249.102539,4239.615234,4214.615234,4232.563965,4253.974121,4288.077148,4188.077148,4487.307617,4259.230957,3293.000000,3.000000,,,,0.000000,4.000000,4.000000,4.000000,4.000000,4.000000,4.000000,4.000000,4.000000,4.000000,4.000000,4.000000,4.000000,4.000000,4.000000,100.000000,,,,,,,,,,,,,,,,,,,,,,,,,,,,,,,,,,,,,,,,,,,,,,,,,,,,,,,,,,,,,,,,,,,,,,
1605179097.163576,66.000000,0.000000,4394.230957,4259.743652,4245.000000,4220.384766,4246.666504,4241.025879,4232.179688,4210.000000,4228.333496,4253.589844,4291.538574,4188.974121,4480.000000,4258.077148,3084.000000,3.000000,,,,0.000000,4.000000,4.000000,4.000000,4.000000,4.000000,4.000000,4.000000,4.000000,4.000000,4.000000,4.000000,4.000000,4.000000,4.000000,100.000000,,,,,,,,,,,,,,,,,,,,,,,,,,,,,,,,,,,,,,,,,,,,,,,,,,,,,,,,,,,,,,,,,,,,,,
1605179097.171560,67.000000,0.000000,4396.794922,4266.153809,4249.358887,4222.948730,4244.743652,4240.384766,4231.666504,4207.820313,4223.589844,4253.205078,4294.358887,4192.948730,4481.410156,4262.436035,3312.000000,3.000000,,,,0.000000,4.000000,4.000000,4.000000,4.000000,4.000000,4.000000,4.000000,4.000000,4.000000,4.000000,4.000000,4.000000,4.000000,4.000000,100.000000,,,,,,,,,,,,,,,,,,,,,,,,,,,,,,,,,,,,,,,,,,,,,,,,,,,,,,,,,,,,,,,,,,,,,,
1605179097.179443,68.000000,0.000000,4398.205078,4279.230957,4249.743652,4232.948730,4251.153809,4246.025879,4235.897461,4209.743652,4226.410156,4243.846191,4297.307617,4194.358887,4487.563965,4265.769043,3485.000000,3.000000,,,,0.000000,4.000000,4.000000,4.000000,4.000000,4.000000,4.000000,4.000000,4.000000,4.000000,4.000000,4.000000,4.000000,4.000000,4.000000,100.000000,,,,,,,,,,,,,,,,,,,,,,,,,,,,,,,,,,,,,,,,,,,,,,,,,,,,,,,,,,,,,,,,,,,,,,
1605179097.187426,69.000000,0.000000,4388.333496,4285.897461,4248.846191,4239.358887,4260.384766,4247.051270,4235.769043,4213.717773,4233.205078,4251.538574,4309.615234,4197.436035,4492.948730,4270.897461,2671.000000,3.000000,,,,0.000000,4.000000,4.000000,4.000000,4.000000,4.000000,4.000000,4.000000,4.000000,4.000000,4.000000,4.000000,4.000000,4.000000,4.000000,100.000000,,,,,,,,,,,,,,,,,,,,,,,,,,,,,,,,,,,,,,,,,,,,,,,,,,,,,,,,,,,,,,,,,,,,,,
1605179097.195309,70.000000,0.000000,4378.717773,4278.846191,4251.153809,4234.487305,4259.871582,4241.153809,4230.512695,4209.487305,4225.256348,4265.641113,4309.102539,4198.589844,4492.307617,4271.538574,1694.000000,3.000000,,,,0.000000,4.000000,4.000000,4.000000,4.000000,4.000000,4.000000,4.000000,4.000000,4.000000,4.000000,4.000000,4.000000,4.000000,4.000000,100.000000,,,,,,,,,,,,,,,,,,,,,,,,,,,,,,,,,,,,,,,,,,,,,,,,,,,,,,,,,,,,,,,,,,,,,,
1605179097.203292,71.000000,0.000000,4396.922852,4285.256348,4255.128418,4238.461426,4264.358887,4248.077148,4233.846191,4213.461426,4230.000000,4271.025879,4309.743652,4199.230957,4492.051270,4274.102539,2017.000000,3.000000,,,,0.000000,4.000000,4.000000,4.000000,4.000000,4.000000,4.000000,4.000000,4.000000,4.000000,4.000000,4.000000,4.000000,4.000000,4.000000,100.000000,,,,,,,,,,,,,,,,,,,,,,,,,,,,,,,,,,,,,,,,,,,,,,,,,,,,,,,,,,,,,,,,,,,,,,
1605179097.211175,72.000000,0.000000,4407.051270,4295.384766,4257.436035,4243.846191,4268.077148,4257.307617,4243.333496,4225.128418,4244.230957,4272.948730,4326.538574,4204.487305,4493.974121,4277.820313,2947.000000,3.000000,,,,0.000000,4.000000,4.000000,4.000000,4.000000,4.000000,4.000000,4.000000,4.000000,4.000000,4.000000,4.000000,4.000000,4.000000,4.000000,100.000000,,,,,,,,,,,,,,,,,,,,,,,,,,,,,,,,,,,,,,,,,,,,,,,,,,,,,,,,,,,,,,,,,,,,,,
1605179097.219158,73.000000,0.000000,4396.025879,4286.794922,4255.128418,4240.256348,4261.410156,4253.077148,4243.205078,4223.974121,4242.051270,4279.358887,4335.128418,4208.589844,4497.820313,4279.871582,3473.000000,3.000000,,,,0.000000,4.000000,4.000000,4.000000,4.000000,4.000000,4.000000,4.000000,4.000000,4.000000,4.000000,4.000000,4.000000,4.000000,4.000000,100.000000,3.472543,3.630718,0.472483,0.602748,0.816375,1.594695,0.541743,0.310502,0.236195,0.219900,0.535736,0.671121,0.118468,0.109126,0.093434,1.453726,1.055919,0.252921,0.341818,0.190426,2.062105,0.689483,0.582060,0.280319,0.298573,0.699310,0.323354,0.275856,0.168417,0.161991,0.311323,0.205339,0.131727,0.167117,0.076996,0.667414,0.273591,0.305434,0.423695,0.224537,1.518424,0.686503,0.545634,0.874119,0.383618,3.048946,1.299060,1.097184,1.106353,0.952700,4.355443,1.789583,0.939470,0.882061,0.748078,0.730484,0.669923,0.171346,0.200776,0.198813,1.424399,0.420783,0.434160,0.278830,0.303314,1.215847,1.388224,0.286079,0.324082,0.337529
1605179097.227042,74.000000,0.000000,4392.436035,4274.487305,4254.102539,4235.256348,4258.205078,4245.256348,4234.615234,4218.333496,4237.820313,4276.794922,4320.769043,4202.563965,4494.102539,4276.794922,2401.000000,3.000000,,,,0.000000,4.000000,4.000000,4.000000,4.000000,4.000000,4.000000,4.000000,4.000000,4.000000,4.000000,4.000000,4.000000,4.000000,4.000000,100.000000,,,,,,,,,,,,,,,,,,,,,,,,,,,,,,,,,,,,,,,,,,,,,,,,,,,,,,,,,,,,,,,,,,,,,,
1605179097.234825,75.000000,0.000000,4394.743652,4281.153809,4256.282227,4235.769043,4266.410156,4249.871582,4235.000000,4225.897461,4246.922852,4276.794922,4317.179688,4200.384766,4490.641113,4274.102539,2759.000000,3.000000,,,,0.000000,4.000000,4.000000,4.000000,4.000000,4.000000,4.000000,4.000000,4.000000,4.000000,4.000000,4.000000,4.000000,4.000000,4.000000,100.000000,,,,,,,,,,,,,,,,,,,,,,,,,,,,,,,,,,,,,,,,,,,,,,,,,,,,,,,,,,,,,,,,,,,,,,
1605179097.242708,76.000000,0.000000,4381.410156,4280.128418,4254.230957,4226.922852,4261.538574,4248.333496,4237.051270,4225.641113,4243.589844,4274.615234,4316.666504,4201.025879,4489.358887,4269.487305,4252.000000,3.000000,,,,0.000000,4.000000,4.000000,4.000000,4.000000,4.000000,4.000000,4.000000,4.000000,4.000000,4.000000,4.000000,4.000000,4.000000,4.000000,100.000000,,,,,,,,,,,,,,,,,,,,,,,,,,,,,,,,,,,,,,,,,,,,,,,,,,,,,,,,,,,,,,,,,,,,,,
1605179097.250491,77.000000,0.000000,4376.410156,4272.051270,4251.538574,4222.563965,4259.615234,4242.948730,4234.487305,4216.922852,4236.153809,4268.077148,4310.897461,4199.358887,4488.077148,4266.538574,2140.000000,3.000000,,,,0.000000,4.000000,4.000000,4.000000,4.000000,4.000000,4.000000,4.000000,4.000000,4.000000,4.000000,4.000000,4.000000,4.000000,4.000000,100.000000,,,,,,,,,,,,,,,,,,,,,,,,,,,,,,,,,,,,,,,,,,,,,,,,,,,,,,,,,,,,,,,,,,,,,,
1605179097.258374,78.000000,0.000000,4392.307617,4281.794922,4256.153809,4237.948730,4280.512695,4250.769043,4240.384766,4227.948730,4254.871582,4290.000000,4322.051270,4202.307617,4494.743652,4272.820313,2401.000000,3.000000,,,,0.000000,4.000000,4.000000,4.000000,4.000000,4.000000,4.000000,4.000000,4.000000,4.000000,4.000000,4.000000,4.000000,4.000000,4.000000,100.000000,,,,,,,,,,,,,,,,,,,,,,,,,,,,,,,,,,,,,,,,,,,,,,,,,,,,,,,,,,,,,,,,,,,,,,
1605179097.266156,79.000000,0.000000,4392.307617,4288.846191,4256.410156,4241.410156,4281.666504,4254.743652,4245.897461,4232.051270,4257.307617,4303.461426,4323.974121,4202.179688,4494.102539,4270.512695,2759.000000,3.000000,,,,0.000000,4.000000,4.000000,4.000000,4.000000,4.000000,4.000000,4.000000,4.000000,4.000000,4.000000,4.000000,4.000000,4.000000,4.000000,100.000000,,,,,,,,,,,,,,,,,,,,,,,,,,,,,,,,,,,,,,,,,,,,,,,,,,,,,,,,,,,,,,,,,,,,,,
1605179097.274039,80.000000,0.000000,4376.025879,4283.846191,4251.922852,4229.102539,4265.641113,4252.179688,4242.948730,4216.153809,4234.358887,4269.871582,4311.153809,4194.615234,4483.333496,4259.871582,4252.000000,3.000000,,,,0.000000,4.000000,4.000000,4.000000,4.000000,4.000000,4.000000,4.000000,4.000000,4.000000,4.000000,4.000000,4.000000,4.000000,4.000000,100.000000,,,,,,,,,,,,,,,,,,,,,,,,,,,,,,,,,,,,,,,,,,,,,,,,,,,,,,,,,,,,,,,,,,,,,,
1605179097.281822,81.000000,0.000000,4372.948730,4278.333496,4248.077148,4223.461426,4267.179688,4249.871582,4238.333496,4212.307617,4230.512695,4240.641113,4302.179688,4190.384766,4477.692383,4253.846191,2140.000000,3.000000,,,,0.000000,4.000000,4.000000,4.000000,4.000000,4.000000,4.000000,4.000000,4.000000,4.000000,4.000000,4.000000,4.000000,4.000000,4.000000,100.000000,,,,,,,,,,,,,,,,,,,,,,,,,,,,,,,,,,,,,,,,,,,,,,,,,,,,,,,,,,,,,,,,,,,,,,
1605179097.289705,82.000000,0.000000,4382.436035,4275.641113,4246.666504,4226.153809,4274.358887,4248.717773,4236.922852,4223.077148,4243.077148,4262.563965,4304.871582,4195.641113,4484.102539,4256.666504,2401.000000,3.000000,,,,0.000000,4.000000,4.000000,4.000000,4.000000,4.000000,4.000000,4.000000,4.000000,4.000000,4.000000,4.000000,4.000000,4.000000,4.000000,100.000000,,,,,,,,,,,,,,,,,,,,,,,,,,,,,,,,,,,,,,,,,,,,,,,,,,,,,,,,,,,,,,,,,,,,,,
1605179097.297487,83.000000,0.000000,4376.153809,4264.102539,4246.282227,4219.230957,4265.384766,4248.589844,4236.410156,4225.128418,4244.230957,4280.384766,4304.615234,4196.282227,4486.922852,4256.538574,2759.000000,3.000000,,,,0.000000,4.000000,4.000000,4.000000,4.000000,4.000000,4.000000,4.000000,4.000000,4.000000,4.000000,4.000000,4.000000,4.000000,4.000000,100.000000,,,,,,,,,,,,,,,,,,,,,,,,,,,,,,,,,,,,,,,,,,,,,,,,,,,,,,,,,,,,,,,,,,,,,,
1605179097.305370,84.000000,0.000000,4371.153809,4258.589844,4244.358887,4213.461426,4258.717773,4248.589844,4236.282227,4222.307617,4244.230957,4259.615234,4300.000000,4191.153809,4484.615234,4255.256348,4252.000000,3.000000,,,,0.000000,4.000000,4.000000,4.000000,4.000000,4.000000,4.000000,4.000000,4.000000,4.000000,4.000000,4.000000,4.000000,4.000000,4.000000,100.000000,,,,,,,,,,,,,,,,,,,,,,,,,,,,,,,,,,,,,,,,,,,,,,,,,,,,,,,,,,,,,,,,,,,,,,
1605179097.313153,85.000000,0.000000,4377.563965,4263.974121,4244.230957,4215.384766,4255.128418,4240.384766,4232.948730,4218.974121,4240.641113,4242.948730,4287.563965,4189.487305,4482.948730,4254.615234,2140.000000,3.000000,,,,0.000000,4.000000,4.000000,4.000000,4.000000,4.000000,4.000000,4.000000,4.000000,4.000000,4.000000,4.000000,4.000000,4.000000,4.000000,100.000000,,,,,,,,,,,,,,,,,,,,,,,,,,,,,,,,,,,,,,,,,,,,,,,,,,,,,,,,,,,,,,,,,,,,,,
1605179097.321035,86.000000,0.000000,4381.025879,4273.846191,4250.000000,4222.051270,4255.000000,4239.487305,4235.641113,4221.025879,4240.000000,4258.461426,4295.512695,4200.128418,4491.794922,4263.589844,2401.000000,3.000000,,,,0.000000,4.000000,4.000000,4.000000,4.000000,4.000000,4.000000,4.000000,4.000000,4.000000,4.000000,4.000000,4.000000,4.000000,4.000000,100.000000,,,,,,,,,,,,,,,,,,,,,,,,,,,,,,,,,,,,,,,,,,,,,,,,,,,,,,,,,,,,,,,,,,,,,,
1605179097.328818,87.000000,0.000000,4383.333496,4276.282227,4258.333496,4223.974121,4255.641113,4244.102539,4241.922852,4224.230957,4242.820313,4266.282227,4317.436035,4210.769043,4503.205078,4275.641113,2759.000000,3.000000,,,,0.000000,4.000000,4.000000,4.000000,4.000000,4.000000,4.000000,4.000000,4.000000,4.000000,4.000000,4.000000,4.000000,4.000000,4.000000,100.000000,,,,,,,,,,,,,,,,,,,,,,,,,,,,,,,,,,,,,,,,,,,,,,,,,,,,,,,,,,,,,,,,,,,,,,
1605179097.336700,88.000000,0.000000,4394.487305,4279.871582,4256.025879,4225.256348,4257.436035,4239.102539,4240.128418,4218.077148,4237.436035,4249.102539,4313.461426,4211.666504,4504.487305,4276.794922,4252.000000,3.000000,,,,0.000000,4.000000,4.000000,4.000000,4.000000,4.000000,4.000000,4.000000,4.000000,4.000000,4.000000,4.000000,4.000000,4.000000,4.000000,100.000000,,,,,,,,,,,,,,,,,,,,,,,,,,,,,,,,,,,,,,,,,,,,,,,,,,,,,,,,,,,,,,,,,,,,,,
1605179097.344482,89.000000,0.000000,4398.846191,4289.102539,4252.692383,4229.230957,4257.436035,4228.333496,4233.205078,4208.974121,4225.384766,4233.717773,4296.794922,4215.641113,4497.179688,4280.000000,2140.000000,3.000000,,,,0.000000,4.000000,4.000000,4.000000,4.000000,4.000000,4.000000,4.000000,4.000000,4.000000,4.000000,4.000000,4.000000,4.000000,4.000000,100.000000,3.450866,3.758906,0.547665,0.688141,0.879178,1.470861,0.471784,0.336284,0.250394,0.238937,0.527539,0.711073,0.152596,0.101661,0.095470,1.254314,0.962427,0.235937,0.358893,0.201818,1.697064,0.751465,0.542048,0.268326,0.294254,0.569380,0.308734,0.262805,0.152778,0.165708,0.283520,0.209875,0.128177,0.171670,0.079357,0.493396,0.262680,0.269928,0.442998,0.227746,1.130893,0.693871,0.458911,0.886766,0.384004,2.380615,1.155120,1.031114,1.258074,1.006350,3.476614,1.740008,0.972577,0.982242,0.812001,0.767888,0.778815,0.205175,0.214105,0.222763,1.288909,0.390557,0.480770,0.313127,0.324801,1.226325,1.515193,0.319180,0.334529,0.381923
1605179097.352465,90.000000,0.000000,4407.051270,4306.410156,4266.282227,4242.307617,4261.922852,4232.820313,4231.538574,4214.230957,4230.897461,4246.538574,4315.128418,4236.025879,4503.589844,4307.307617,2401.000000,3.000000,,,,0.000000,4.000000,4.000000,4.000000,4.000000,4.000000,4.000000,4.000000,4.000000,4.000000,4.000000,4.000000,4.000000,4.000000,4.000000,100.000000,,,,,,,,,,,,,,,,,,,,,,,,,,,,,,,,,,,,,,,,,,,,,,,,,,,,,,,,,,,,,,,,,,,,,,
1605179097.360349,91.000000,0.000000,4424.230957,4316.538574,4273.974121,4248.589844,4256.922852,4238.461426,4231.025879,4216.282227,4231.794922,4260.641113,4331.922852,4242.307617,4512.692383,4315.897461,2759.000000,3.000000,,,,0.000000,4.000000,4.000000,4.000000,4.000000,4.000000,4.000000,4.000000,4.000000,4.000000,4.000000,4.000000,4.000000,4.000000,4.000000,100.000000,,,,,,,,,,,,,,,,,,,,,,,,,,,,,,,,,,,,,,,,,,,,,,,,,,,,,,,,,,,,,,,,,,,,,,
1605179097.368331,92.000000,0.000000,4435.128418,4309.615234,4261.410156,4241.282227,4246.922852,4233.077148,4232.307617,4206.410156,4217.436035,4251.666504,4311.538574,4222.948730,4507.051270,4291.025879,4252.000000,3.000000,,,,0.000000,4.000000,4.000000,4.000000,4.000000,4.000000,4.000000,4.000000,4.000000,4.000000,4.000000,4.000000,4.000000,4.000000,4.000000,100.000000,,,,,,,,,,,,,,,,,,,,,,,,,,,,,,,,,,,,,,,,,,,,,,,,,,,,,,,,,,,,,,,,,,,,,,
1605179097.376215,93.000000,0.000000,4430.512695,4292.820313,4255.512695,4232.948730,4241.794922,4225.897461,4232.051270,4195.512695,4208.589844,4225.897461,4289.230957,4217.563965,4494.743652,4287.179688,2140.000000,3.000000,,,,0.000000,4.000000,4.000000,4.000000,4.000000,4.000000,4.000000,4.000000,4.000000,4.000000,4.000000,4.000000,4.000000,4.000000,4.000000,100.000000,,,,,,,,,,,,,,,,,,,,,,,,,,,,,,,,,,,,,,,,,,,,,,,,,,,,,,,,,,,,,,,,,,,,,,
1605179097.383997,94.000000,0.000000,4436.410156,4293.333496,4267.820313,4240.256348,4246.025879,4231.410156,4232.820313,4197.051270,4216.794922,4220.384766,4298.846191,4234.871582,4496.025879,4308.333496,2401.000000,3.000000,,,,0.000000,4.000000,4.000000,4.000000,4.000000,4.000000,4.000000,4.000000,4.000000,4.000000,4.000000,4.000000,4.000000,4.000000,4.000000,100.000000,,,,,,,,,,,,,,,,,,,,,,,,,,,,,,,,,,,,,,,,,,,,,,,,,,,,,,,,,,,,,,,,,,,,,,
1605179097.391880,95.000000,0.000000,4430.641113,4301.025879,4271.025879,4242.051270,4248.205078,4238.717773,4237.820313,4209.487305,4229.230957,4232.307617,4302.436035,4229.358887,4497.307617,4292.820313,2759.000000,3.000000,,,,0.000000,4.000000,4.000000,4.000000,4.000000,4.000000,4.000000,4.000000,4.000000,4.000000,4.000000,4.000000,4.000000,4.000000,4.000000,100.000000,,,,,,,,,,,,,,,,,,,,,,,,,,,,,,,,,,,,,,,,,,,,,,,,,,,,,,,,,,,,,,,,,,,,,,
1605179097.399663,96.000000,0.000000,4399.615234,4293.333496,4263.205078,4230.897461,4241.025879,4236.922852,4239.871582,4216.794922,4233.333496,4220.128418,4278.205078,4206.282227,4487.692383,4262.820313,4252.000000,3.000000,,,,0.000000,4.000000,4.000000,4.000000,4.000000,4.000000,4.000000,4.000000,4.000000,4.000000,4.000000,4.000000,4.000000,4.000000,4.000000,100.000000,,,,,,,,,,,,,,,,,,,,,,,,,,,,,,,,,,,,,,,,,,,,,,,,,,,,,,,,,,,,,,,,,,,,,,
1605179097.407546,97.000000,0.000000,4399.230957,4284.743652,4267.179688,4231.794922,4240.897461,4230.256348,4234.487305,4210.897461,4228.333496,4205.769043,4271.153809,4210.512695,4487.436035,4271.410156,2140.000000,3.000000,,,,0.000000,4.000000,4.000000,4.000000,4.000000,4.000000,4.000000,4.000000,4.000000,4.000000,4.000000,4.000000,4.000000,4.000000,4.000000,100.000000,,,,,,,,,,,,,,,,,,,,,,,,,,,,,,,,,,,,,,,,,,,,,,,,,,,,,,,,,,,,,,,,,,,,,,
1605179097.415329,98.000000,0.000000,4417.563965,4288.974121,4271.025879,4242.051270,4252.692383,4232.179688,4233.974121,4204.871582,4221.025879,4221.794922,4289.358887,4227.436035,4494.871582,4288.974121,2401.000000,3.000000,,,,0.000000,4.000000,4.000000,4.000000,4.000000,4.000000,4.000000,4.000000,4.000000,4.000000,4.000000,4.000000,4.000000,4.000000,4.000000,100.000000,,,,,,,,,,,,,,,,,,,,,,,,,,,,,,,,,,,,,,,,,,,,,,,,,,,,,,,,,,,,,,,,,,,,,,
1605179097.423212,99.000000,0.000000,4403.077148,4289.615234,4268.974121,4240.897461,4259.358887,4243.589844,4246.282227,4208.461426,4223.077148,4237.051270,4297.307617,4228.717773,4492.948730,4287.051270,2759.000000,3.000000,,,,0.000000,4.000000,4.000000,4.000000,4.000000,4.000000,4.000000,4.000000,4.000000,4.000000,4.000000,4.000000,4.000000,4.000000,4.000000,100.000000,,,,,,,,,,,,,,,,,,,,,,,,,,,,,,,,,,,,,,,,,,,,,,,,,,,,,,,,,,,,,,,,,,,,,,
1605179097.430995,100.000000,0.000000,4373.846191,4272.051270,4267.436035,4228.333496,4248.205078,4240.256348,4246.666504,4207.436035,4222.051270,4218.589844,4278.846191,4218.974121,4483.717773,4280.641113,4252.000000,3.000000,,,,0.000000,4.000000,4.000000,4.000000,4.000000,4.000000,4.000000,4.000000,4.000000,4.000000,4.000000,4.000000,4.000000,4.000000,4.000000,100.000000,,,,,,,,,,,,,,,,,,,,,,,,,,,,,,,,,,,,,,,,,,,,,,,,,,,,,,,,,,,,,,,,,,,,,,
1605179097.438978,101.000000,0.000000,4380.256348,4257.307617,4265.256348,4223.974121,4240.256348,4230.128418,4235.000000,4202.179688,4215.769043,4199.615234,4266.922852,4211.794922,4481.794922,4272.436035,2140.000000,3.000000,,,,0.000000,4.000000,4.000000,4.000000,4.000000,4.000000,4.000000,4.000000,4.000000,4.000000,4.000000,4.000000,4.000000,4.000000,4.000000,100.000000,,,,,,,,,,,,,,,,,,,,,,,,,,,,,,,,,,,,,,,,,,,,,,,,,,,,,,,,,,,,,,,,,,,,,,
1605179097.446862,102.000000,0.000000,4381.410156,4254.230957,4260.384766,4223.717773,4236.153809,4232.820313,4237.307617,4204.358887,4216.794922,4202.307617,4264.487305,4210.256348,4479.102539,4261.025879,2401.000000,3.000000,,,,0.000000,4.000000,4.000000,4.000000,4.000000,4.000000,4.000000,4.000000,4.000000,4.000000,4.000000,4.000000,4.000000,4.000000,4.000000,100.000000,,,,,,,,,,,,,,,,,,,,,,,,,,,,,,,,,,,,,,,,,,,,,,,,,,,,,,,,,,,,,,,,,,,,,,
1605179097.454845,103.000000,0.000000,4344.487305,4257.051270,4260.384766,4223.846191,4234.230957,4242.692383,4247.692383,4211.538574,4226.538574,4223.846191,4266.282227,4217.051270,4477.436035,4266.282227,2759.000000,3.000000,,,,0.000000,4.000000,4.000000,4.000000,4.000000,4.000000,4.000000,4.000000,4.000000,4.000000,4.000000,4.000000,4.000000,4.000000,4.000000,100.000000,,,,,,,,,,,,,,,,,,,,,,,,,,,,,,,,,,,,,,,,,,,,,,,,,,,,,,,,,,,,,,,,,,,,,,
1605179097.462728,104.000000,0.000000,4297.179688,4250.897461,4261.153809,4216.410156,4235.256348,4235.512695,4239.615234,4203.333496,4218.846191,4222.179688,4254.871582,4213.333496,4472.948730,4263.974121,4252.000000,3.000000,,,,0.000000,4.000000,4.000000,4.000000,4.000000,4.000000,4.000000,4.000000,4.000000,4.000000,4.000000,4.000000,4.000000,4.000000,4.000000,100.000000,,,,,,,,,,,,,,,,,,,,,,,,,,,,,,,,,,,,,,,,,,,,,,,,,,,,,,,,,,,,,,,,,,,,,,
1605179097.470712,105.000000,0.000000,4273.333496,4251.794922,4258.589844,4217.051270,4241.922852,4227.692383,4232.051270,4197.436035,4209.358887,4206.922852,4248.077148,4202.307617,4470.641113,4251.794922,2140.000000,3.000000,,,,0.000000,4.000000,4.000000,4.000000,4.000000,4.000000,4.000000,4.000000,4.000000,4.000000,4.000000,4.000000,4.000000,4.000000,4.000000,100.000000,3.578905,3.717518,0.633564,0.775903,0.906917,1.316613,0.417762,0.368927,0.275353,0.252624,0.557387,0.725312,0.188490,0.097728,0.091800,1.087291,0.838619,0.235300,0.377677,0.209423,1.339386,0.807081,0.489869,0.268195,0.293676,0.440957,0.298523,0.263297,0.149990,0.172619,0.262563,0.219428,0.136959,0.169117,0.085172,0.346959,0.255377,0.238518,0.436908,0.222204,0.808084,0.709431,0.390358,0.830729,0.366378,1.824877,1.009307,0.945394,1.375058,1.029571,2.829960,1.623299,0.971887,1.054656,0.865171,0.878997,0.868550,0.240773,0.218264,0.241047,1.214425,0.357674,0.495263,0.338049,0.339332,1.321035,1.589153,0.355949,0.331439,0.399262
1605179097.478595,106.000000,0.000000,4271.410156,4256.922852,4259.358887,4222.948730,4238.846191,4230.256348,4238.846191,4203.333496,4214.487305,4212.179688,4252.948730,4201.922852,4472.307617,4247.948730,2401.000000,3.000000,,,,0.000000,4.000000,4.000000,4.000000,4.000000,4.000000,4.000000,4.000000,4.000000,4.000000,4.000000,4.000000,4.000000,4.000000,4.000000,100.000000,,,,,,,,,,,,,,,,,,,,,,,,,,,,,,,,,,,,,,,,,,,,,,,,,,,,,,,,,,,,,,,,,,,,,,
1605179097.486578,107.000000,0.000000,4271.282227,4257.948730,4261.410156,4222.179688,4234.615234,4232.307617,4240.384766,4210.641113,4226.153809,4225.384766,4263.589844,4209.871582,4479.230957,4257.692383,2759.000000,3.000000,,,,0.000000,4.000000,4.000000,4.000000,4.000000,4.000000,4.000000,4.000000,4.000000,4.000000,4.000000,4.000000,4.000000,4.000000,4.000000,100.000000,,,,,,,,,,,,,,,,,,,,,,,,,,,,,,,,,,,,,,,,,,,,,,,,,,,,,,,,,,,,,,,,,,,,,,
1605179097.494461,108.000000,0.000000,4264.615234,4247.051270,4257.820313,4209.230957,4232.563965,4221.282227,4230.512695,4205.897461,4221.922852,4210.769043,4258.077148,4203.974121,4476.282227,4254.743652,4252.000000,3.000000,,,,0.000000,4.000000,4.000000,4.000000,4.000000,4.000000,4.000000,4.000000,4.000000,4.000000,4.000000,4.000000,4.000000,4.000000,4.000000,100.000000,,,,,,,,,,,,,,,,,,,,,,,,,,,,,,,,,,,,,,,,,,,,,,,,,,,,,,,,,,,,,,,,,,,,,,
1605179097.502444,109.000000,0.000000,4270.256348,4238.333496,4253.205078,4202.307617,4230.000000,4218.205078,4228.846191,4198.974121,4210.897461,4201.282227,4233.846191,4193.077148,4465.256348,4238.205078,2140.000000,3.000000,,,,0.000000,4.000000,4.000000,4.000000,4.000000,4.000000,4.000000,4.000000,4.000000,4.000000,4.000000,4.000000,4.000000,4.000000,4.000000,100.000000,,,,,,,,,,,,,,,,,,,,,,,,,,,,,,,,,,,,,,,,,,,,,,,,,,,,,,,,,,,,,,,,,,,,,,
1605179097.510327,110.000000,0.000000,4277.051270,4237.820313,4254.230957,4205.512695,4224.743652,4231.666504,4235.512695,4204.358887,4217.820313,4214.487305,4221.794922,4190.512695,4461.410156,4230.897461,2401.000000,3.000000,,,,0.000000,4.000000,4.000000,4.000000,4.000000,4.000000,4.000000,4.000000,4.000000,4.000000,4.000000,4.000000,4.000000,4.000000,4.000000,100.000000,,,,,,,,,,,,,,,,,,,,,,,,,,,,,,,,,,,,,,,,,,,,,,,,,,,,,,,,,,,,,,,,,,,,,,
1605179097.518310,111.000000,0.000000,4285.256348,4247.948730,4258.333496,4216.025879,4230.256348,4242.307617,4240.384766,4214.743652,4234.487305,4227.820313,4245.512695,4200.256348,4472.179688,4246.538574,2759.000000,3.000000,,,,0.000000,4.000000,4.000000,4.000000,4.000000,4.000000,4.000000,4.000000,4.000000,4.000000,4.000000,4.000000,4.000000,4.000000,4.000000,100.000000,,,,,,,,,,,,,,,,,,,,,,,,,,,,,,,,,,,,,,,,,,,,,,,,,,,,,,,,,,,,,,,,,,,,,,
1605179097.526193,112.000000,0.000000,4288.974121,4248.589844,4259.487305,4216.025879,4230.256348,4232.179688,4235.897461,4205.769043,4220.769043,4224.487305,4255.000000,4204.743652,4475.256348,4252.179688,4252.000000,3.000000,,,,0.000000,4.000000,4.000000,4.000000,4.000000,4.000000,4.000000,4.000000,4.000000,4.000000,4.000000,4.000000,4.000000,4.000000,4.000000,100.000000,,,,,,,,,,,,,,,,,,,,,,,,,,,,,,,,,,,,,,,,,,,,,,,,,,,,,,,,,,,,,,,,,,,,,,
1605179097.534176,113.000000,0.000000,4279.743652,4232.563965,4254.871582,4202.307617,4222.307617,4218.974121,4229.230957,4191.410156,4199.102539,4204.102539,4226.538574,4195.000000,4465.128418,4235.128418,2140.000000,3.000000,,,,0.000000,4.000000,4.000000,4.000000,4.000000,4.000000,4.000000,4.000000,4.000000,4.000000,4.000000,4.000000,4.000000,4.000000,4.000000,100.000000,,,,,,,,,,,,,,,,,,,,,,,,,,,,,,,,,,,,,,,,,,,,,,,,,,,,,,,,,,,,,,,,,,,,,,
1605179097.542059,114.000000,0.000000,4267.948730,4225.512695,4251.538574,4195.512695,4220.641113,4218.846191,4229.743652,4197.948730,4208.846191,4187.179688,4217.436035,4191.410156,4461.025879,4232.051270,2401.000000,3.000000,,,,0.000000,4.000000,4.000000,4.000000,4.000000,4.000000,4.000000,4.000000,4.000000,4.000000,4.000000,4.000000,4.000000,4.000000,4.000000,100.000000,,,,,,,,,,,,,,,,,,,,,,,,,,,,,,,,,,,,,,,,,,,,,,,,,,,,,,,,,,,,,,,,,,,,,,
1605179097.549842,115.000000,0.000000,4270.256348,4233.589844,4253.461426,4204.615234,4219.487305,4227.051270,4234.615234,4208.974121,4223.974121,4194.230957,4238.077148,4199.230957,4464.743652,4244.871582,2759.000000,3.000000,,,,0.000000,4.000000,4.000000,4.000000,4.000000,4.000000,4.000000,4.000000,4.000000,4.000000,4.000000,4.000000,4.000000,4.000000,4.000000,100.000000,,,,,,,,,,,,,,,,,,,,,,,,,,,,,,,,,,,,,,,,,,,,,,,,,,,,,,,,,,,,,,,,,,,,,,
1605179097.557725,116.000000,0.000000,4276.922852,4234.358887,4257.692383,4208.974121,4211.282227,4231.025879,4236.153809,4208.717773,4223.205078,4202.692383,4239.743652,4200.256348,4463.717773,4243.205078,4252.000000,3.000000,,,,0.000000,4.000000,4.000000,4.000000,4.000000,4.000000,4.000000,4.000000,4.000000,4.000000,4.000000,4.000000,4.000000,4.000000,4.000000,100.000000,,,,,,,,,,,,,,,,,,,,,,,,,,,,,,,,,,,,,,,,,,,,,,,,,,,,,,,,,,,,,,,,,,,,,,
1605179097.565508,117.000000,0.000000,4277.436035,4225.128418,4257.948730,4204.871582,4208.589844,4226.666504,4232.307617,4205.641113,4221.794922,4191.538574,4226.410156,4194.487305,4463.333496,4235.128418,2140.000000,3.000000,,,,0.000000,4.000000,4.000000,4.000000,4.000000,4.000000,4.000000,4.000000,4.000000,4.000000,4.000000,4.000000,4.000000,4.000000,4.000000,100.000000,,,,,,,,,,,,,,,,,,,,,,,,,,,,,,,,,,,,,,,,,,,,,,,,,,,,,,,,,,,,,,,,,,,,,,
1605179097.573391,118.000000,0.000000,4271.538574,4222.948730,4257.051270,4205.897461,4216.666504,4224.358887,4232.051270,4203.846191,4219.358887,4186.922852,4229.230957,4195.897461,4463.717773,4237.051270,2401.000000,3.000000,,,,0.000000,4.000000,4.000000,4.000000,4.000000,4.000000,4.000000,4.000000,4.000000,4.000000,4.000000,4.000000,4.000000,4.000000,4.000000,100.000000,,,,,,,,,,,,,,,,,,,,,,,,,,,,,,,,,,,,,,,,,,,,,,,,,,,,,,,,,,,,,,,,,,,,,,
1605179097.581174,119.000000,0.000000,4255.512695,4218.846191,4255.897461,4201.025879,4215.897461,4222.051270,4228.077148,4192.948730,4200.384766,4186.410156,4224.230957,4193.717773,4452.563965,4232.692383,2759.000000,3.000000,,,,0.000000,4.000000,4.000000,4.000000,4.000000,4.000000,4.000000,4.000000,4.000000,4.000000,4.000000,4.000000,4.000000,4.000000,4.000000,100.000000,,,,,,,,,,,,,,,,,,,,,,,,,,,,,,,,,,,,,,,,,,,,,,,,,,,,,,,,,,,,,,,,,,,,,,
1605179097.589057,120.000000,0.000000,4264.743652,4214.102539,4255.384766,4195.641113,4211.410156,4217.436035,4218.461426,4184.871582,4190.897461,4179.743652,4211.666504,4191.666504,4446.666504,4229.615234,4252.000000,3.000000,,,,0.000000,4.000000,4.000000,4.000000,4.000000,4.000000,4.000000,4.000000,4.000000,4.000000,4.000000,4.000000,4.000000,4.000000,4.000000,100.000000,,,,,,,,,,,,,,,,,,,,,,,,,,,,,,,,,,,,,,,,,,,,,,,,,,,,,,,,,,,,,,,,,,,,,,
1605179097.596839,121.000000,0.000000,4289.102539,4221.410156,4257.436035,4201.153809,4212.051270,4217.436035,4219.743652,4194.743652,4202.307617,4177.307617,4213.589844,4193.205078,4454.743652,4234.871582,2140.000000,3.000000,,,,0.000000,4.000000,4.000000,4.000000,4.000000,4.000000,4.000000,4.000000,4.000000,4.000000,4.000000,4.000000,4.000000,4.000000,4.000000,100.000000,3.830388,3.444560,0.698846,0.852453,0.881906,1.220994,0.382629,0.429418,0.305104,0.258636,0.592632,0.701213,0.215516,0.096957,0.085165,1.005889,0.711686,0.259963,0.389397,0.210636,1.092862,0.811851,0.454468,0.266906,0.290555,0.357544,0.284205,0.281586,0.160392,0.179597,0.263326,0.221198,0.157017,0.160563,0.092758,0.278748,0.264402,0.215363,0.409191,0.213131,0.659264,0.745389,0.346964,0.723585,0.341698,1.591394,0.894143,0.865702,1.447694,1.021643,2.658744,1.484345,0.951913,1.088214,0.889665,1.095415,0.914092,0.272470,0.209570,0.250238,1.128749,0.340071,0.473356,0.351498,0.341899,1.607851,1.587459,0.392176,0.310231,0.388518
1605179097.604722,122.000000,0.000000,4287.563965,4237.307617,4259.871582,4208.846191,4221.794922,4230.000000,4229.102539,4208.461426,4216.666504,4194.615234,4229.358887,4194.871582,4463.846191,4238.461426,2401.000000,3.000000,,,,0.000000,4.000000,4.000000,4.000000,4.000000,4.000000,4.000000,4.000000,4.000000,4.000000,4.000000,4.000000,4.000000,4.000000,4.000000,100.000000,,,,,,,,,,,,,,,,,,,,,,,,,,,,,,,,,,,,,,,,,,,,,,,,,,,,,,,,,,,,,,,,,,,,,,
1605179097.612505,123.000000,0.000000,4274.743652,4233.717773,4258.461426,4200.000000,4224.615234,4232.436035,4225.897461,4199.230957,4207.436035,4191.922852,4225.641113,4191.538574,4458.461426,4230.897461,2759.000000,3.000000,,,,0.000000,4.000000,4.000000,4.000000,4.000000,4.000000,4.000000,4.000000,4.000000,4.000000,4.000000,4.000000,4.000000,4.000000,4.000000,100.000000,,,,,,,,,,,,,,,,,,,,,,,,,,,,,,,,,,,,,,,,,,,,,,,,,,,,,,,,,,,,,,,,,,,,,,
1605179097.620387,124.000000,0.000000,4274.615234,4227.948730,4254.615234,4198.077148,4224.871582,4223.846191,4219.615234,4190.256348,4199.102539,4178.717773,4219.102539,4189.230957,4456.025879,4226.410156,4252.000000,3.000000,,,,0.000000,4.000000,4.000000,4.000000,4.000000,4.000000,4.000000,4.000000,4.000000,4.000000,4.000000,4.000000,4.000000,4.000000,4.000000,100.000000,,,,,,,,,,,,,,,,,,,,,,,,,,,,,,,,,,,,,,,,,,,,,,,,,,,,,,,,,,,,,,,,,,,,,,
1605179097.628170,125.000000,0.000000,4258.846191,4226.794922,4252.692383,4198.717773,4220.769043,4216.282227,4219.743652,4192.307617,4201.922852,4183.333496,4217.436035,4189.871582,4454.358887,4226.410156,2140.000000,3.000000,,,,0.000000,4.000000,4.000000,4.000000,4.000000,4.000000,4.000000,4.000000,4.000000,4.000000,4.000000,4.000000,4.000000,4.000000,4.000000,100.000000,,,,,,,,,,,,,,,,,,,,,,,,,,,,,,,,,,,,,,,,,,,,,,,,,,,,,,,,,,,,,,,,,,,,,,
1605179097.636053,126.000000,0.000000,4263.077148,4227.307617,4256.666504,4199.230957,4221.538574,4222.563965,4224.230957,4197.051270,4206.666504,4196.538574,4225.000000,4196.538574,4458.717773,4234.615234,2401.000000,3.000000,,,,0.000000,4.000000,4.000000,4.000000,4.000000,4.000000,4.000000,4.000000,4.000000,4.000000,4.000000,4.000000,4.000000,4.000000,4.000000,100.000000,,,,,,,,,,,,,,,,,,,,,,,,,,,,,,,,,,,,,,,,,,,,,,,,,,,,,,,,,,,,,,,,,,,,,,
1605179097.643835,127.000000,0.000000,4290.128418,4232.692383,4262.692383,4206.538574,4231.410156,4233.333496,4230.000000,4202.563965,4211.282227,4201.666504,4240.641113,4200.897461,4471.922852,4241.666504,52.000000,3.000000,,,,0.000000,4.000000,4.000000,4.000000,4.000000,4.000000,4.000000,4.000000,4.000000,4.000000,4.000000,4.000000,4.000000,4.000000,4.000000,100.000000,,,,,,,,,,,,,,,,,,,,,,,,,,,,,,,,,,,,,,,,,,,,,,,,,,,,,,,,,,,,,,,,,,,,,,
1605179097.651717,0.000000,0.000000,4290.384766,4243.974121,4261.666504,4215.897461,4247.692383,4237.051270,4233.846191,4209.871582,4223.333496,4210.769043,4256.282227,4203.205078,4479.487305,4242.948730,1637.000000,3.000000,,,,0.000000,4.000000,4.000000,4.000000,4.000000,4.000000,4.000000,4.000000,4.000000,4.000000,4.000000,4.000000,4.000000,4.000000,4.000000,100.000000,,,,,,,,,,,,,,,,,,,,,,,,,,,,,,,,,,,,,,,,,,,,,,,,,,,,,,,,,,,,,,,,,,,,,,
1605179097.659500,1.000000,0.000000,4277.051270,4239.743652,4258.717773,4210.769043,4249.102539,4232.692383,4231.538574,4211.794922,4228.717773,4214.230957,4256.410156,4203.589844,4471.538574,4239.871582,3310.000000,3.000000,,,,0.000000,4.000000,4.000000,4.000000,4.000000,4.000000,4.000000,4.000000,4.000000,4.000000,4.000000,4.000000,4.000000,4.000000,4.000000,100.000000,,,,,,,,,,,,,,,,,,,,,,,,,,,,,,,,,,,,,,,,,,,,,,,,,,,,,,,,,,,,,,,,,,,,,,
1605179097.667483,2.000000,0.000000,4280.128418,4227.948730,4258.461426,4202.436035,4234.743652,4232.307617,4232.051270,4211.794922,4222.436035,4205.000000,4246.794922,4203.333496,4466.025879,4241.282227,3093.000000,3.000000,,,,0.000000,4.000000,4.000000,4.000000,4.000000,4.000000,4.000000,4.000000,4.000000,4.000000,4.000000,4.000000,4.000000,4.000000,4.000000,100.000000,,,,,,,,,,,,,,,,,,,,,,,,,,,,,,,,,,,,,,,,,,,,,,,,,,,,,,,,,,,,,,,,,,,,,,
1605179097.675366,3.000000,0.000000,4282.820313,4224.615234,4255.256348,4196.922852,4221.410156,4228.846191,4230.256348,4205.128418,4209.743652,4192.948730,4234.615234,4199.230957,4456.922852,4237.307617,3304.000000,3.000000,,,,0.000000,4.000000,4.000000,4.000000,4.000000,4.000000,4.000000,4.000000,4.000000,4.000000,4.000000,4.000000,4.000000,4.000000,4.000000,100.000000,,,,,,,,,,,,,,,,,,,,,,,,,,,,,,,,,,,,,,,,,,,,,,,,,,,,,,,,,,,,,,,,,,,,,,
1605179097.683349,4.000000,0.000000,4282.436035,4225.897461,4251.153809,4194.487305,4229.358887,4222.692383,4225.769043,4198.077148,4204.358887,4188.717773,4225.897461,4193.205078,4447.436035,4228.461426,3476.000000,3.000000,,,,0.000000,4.000000,4.000000,4.000000,4.000000,4.000000,4.000000,4.000000,4.000000,4.000000,4.000000,4.000000,4.000000,4.000000,4.000000,100.000000,,,,,,,,,,,,,,,,,,,,,,,,,,,,,,,,,,,,,,,,,,,,,,,,,,,,,,,,,,,,,,,,,,,,,,
1605179097.691232,5.000000,0.000000,4276.922852,4228.974121,4256.794922,4201.538574,4245.512695,4227.051270,4229.358887,4205.897461,4216.538574,4198.461426,4233.205078,4193.846191,4455.384766,4228.461426,2669.000000,3.000000,,,,0.000000,4.000000,4.000000,4.000000,4.000000,4.000000,4.000000,4.000000,4.000000,4.000000,4.000000,4.000000,4.000000,4.000000,4.000000,100.000000,,,,,,,,,,,,,,,,,,,,,,,,,,,,,,,,,,,,,,,,,,,,,,,,,,,,,,,,,,,,,,,,,,,,,,
1605179097.699014,6.000000,0.000000,4260.641113,4231.153809,4262.179688,4207.179688,4238.077148,4231.922852,4233.461426,4212.948730,4226.410156,4202.692383,4237.948730,4197.179688,4457.820313,4233.589844,1501.000000,3.000000,,,,0.000000,4.000000,4.000000,4.000000,4.000000,4.000000,4.000000,2.000000,4.000000,4.000000,4.000000,4.000000,4.000000,4.000000,4.000000,83.333336,,,,,,,,,,,,,,,,,,,,,,,,,,,,,,,,,,,,,,,,,,,,,,,,,,,,,,,,,,,,,,,,,,,,,,
1605179097.706897,7.000000,0.000000,4267.179688,4232.307617,4259.102539,4203.846191,4226.538574,4230.897461,4232.948730,4206.410156,4217.307617,4192.563965,4235.641113,4196.922852,4447.051270,4234.487305,2019.000000,3.000000,,,,0.000000,4.000000,4.000000,4.000000,4.000000,4.000000,4.000000,2.000000,4.000000,4.000000,4.000000,4.000000,4.000000,4.000000,4.000000,83.333336,,,,,,,,,,,,,,,,,,,,,,,,,,,,,,,,,,,,,,,,,,,,,,,,,,,,,,,,,,,,,,,,,,,,,,
1605179097.714680,8.000000,0.000000,4280.897461,4229.487305,4255.256348,4197.307617,4229.615234,4230.769043,4231.922852,4197.436035,4203.589844,4189.102539,4232.820313,4194.102539,4445.769043,4227.948730,2765.000000,3.000000,,,,0.000000,4.000000,4.000000,4.000000,4.000000,4.000000,4.000000,2.000000,4.000000,4.000000,4.000000,4.000000,4.000000,4.000000,4.000000,83.333336,,,,,,,,,,,,,,,,,,,,,,,,,,,,,,,,,,,,,,,,,,,,,,,,,,,,,,,,,,,,,,,,,,,,,,
1605179097.722563,9.000000,0.000000,4269.615234,4229.743652,4257.563965,4201.153809,4239.615234,4231.666504,4232.051270,4200.512695,4209.487305,4195.769043,4236.538574,4196.153809,4455.384766,4227.051270,3462.000000,3.000000,,,,0.000000,4.000000,4.000000,4.000000,4.000000,4.000000,4.000000,2.000000,4.000000,4.000000,4.000000,4.000000,4.000000,4.000000,4.000000,83.333336,4.859079,2.938148,0.751363,0.899408,0.815945,1.312479,0.374774,0.539877,0.330419,0.258719,0.666359,0.636217,0.227077,0.097569,0.080496,1.047596,0.596524,0.311213,0.386500,0.207731,0.986238,0.748686,0.458137,0.256951,0.282147,0.314972,0.260984,0.307742,0.179110,0.186048,0.272092,0.207825,0.180218,0.149829,0.101061,0.288550,0.298305,0.195109,0.367449,0.207766,0.679094,0.807609,0.319154,0.596155,0.324741,1.735107,0.846692,0.800875,1.469846,1.005584,2.943483,1.367125,0.930942,1.071652,0.885590,1.407323,0.910489,0.297482,0.189094,0.254068,1.140266,0.348251,0.421958,0.350743,0.331926,2.111537,1.519744,0.427761,0.274564,0.364862
1605179097.730346,10.000000,0.000000,4266.282227,4237.436035,4261.025879,4209.102539,4245.256348,4229.615234,4231.282227,4207.948730,4218.717773,4204.102539,4244.871582,4197.692383,4457.948730,4231.153809,2413.000000,3.000000,,,,0.000000,4.000000,4.000000,4.000000,4.000000,4.000000,4.000000,2.000000,4.000000,4.000000,4.000000,4.000000,4.000000,4.000000,4.000000,83.333336,,,,,,,,,,,,,,,,,,,,,,,,,,,,,,,,,,,,,,,,,,,,,,,,,,,,,,,,,,,,,,,,,,,,,,
1605179097.738229,11.000000,0.000000,4279.102539,4243.717773,4258.974121,4205.641113,4245.128418,4232.563965,4231.538574,4208.589844,4217.307617,4214.487305,4249.487305,4193.589844,4455.128418,4227.051270,2764.000000,3.000000,,,,0.000000,4.000000,4.000000,4.000000,4.000000,4.000000,4.000000,2.000000,4.000000,4.000000,4.000000,4.000000,4.000000,4.000000,4.000000,83.333336,,,,,,,,,,,,,,,,,,,,,,,,,,,,,,,,,,,,,,,,,,,,,,,,,,,,,,,,,,,,,,,,,,,,,,
1605179097.746012,12.000000,0.000000,4269.743652,4230.512695,4253.589844,4192.820313,4235.769043,4230.256348,4228.461426,4201.410156,4208.974121,4197.051270,4231.282227,4191.153809,4445.128418,4215.769043,4253.000000,3.000000,,,,0.000000,4.000000,4.000000,4.000000,4.000000,4.000000,4.000000,2.000000,4.000000,4.000000,4.000000,4.000000,4.000000,4.000000,4.000000,83.333336,,,,,,,,,,,,,,,,,,,,,,,,,,,,,,,,,,,,,,,,,,,,,,,,,,,,,,,,,,,,,,,,,,,,,,
1605179097.753995,13.000000,0.000000,4259.358887,4231.153809,4256.538574,4201.410156,4240.256348,4233.077148,4230.000000,4207.179688,4214.358887,4184.615234,4229.358887,4200.000000,4446.025879,4223.974121,2137.000000,3.000000,,,,0.000000,4.000000,4.000000,4.000000,4.000000,4.000000,4.000000,2.000000,4.000000,4.000000,4.000000,4.000000,4.000000,4.000000,4.000000,83.333336,,,,,,,,,,,,,,,,,,,,,,,,,,,,,,,,,,,,,,,,,,,,,,,,,,,,,,,,,,,,,,,,,,,,,,
1605179097.761879,14.000000,0.000000,4273.205078,4245.769043,4260.000000,4211.025879,4250.000000,4237.436035,4231.922852,4212.307617,4218.205078,4202.307617,4246.282227,4201.922852,4456.025879,4234.743652,2413.000000,3.000000,,,,0.000000,4.000000,4.000000,4.000000,4.000000,4.000000,4.000000,2.000000,4.000000,4.000000,4.000000,4.000000,4.000000,4.000000,4.000000,83.333336,,,,,,,,,,,,,,,,,,,,,,,,,,,,,,,,,,,,,,,,,,,,,,,,,,,,,,,,,,,,,,,,,,,,,,
1605179097.769862,15.000000,0.000000,4296.282227,4249.230957,4255.897461,4208.846191,4255.000000,4236.025879,4231.025879,4206.666504,4215.897461,4217.051270,4253.846191,4197.948730,4459.102539,4233.846191,2764.000000,3.000000,,,,0.000000,4.000000,4.000000,4.000000,4.000000,4.000000,4.000000,2.000000,4.000000,4.000000,4.000000,4.000000,4.000000,4.000000,4.000000,83.333336,,,,,,,,,,,,,,,,,,,,,,,,,,,,,,,,,,,,,,,,,,,,,,,,,,,,,,,,,,,,,,,,,,,,,,
1605179097.777745,16.000000,0.000000,4298.717773,4248.077148,4257.051270,4213.205078,4260.641113,4237.563965,4233.589844,4210.000000,4221.282227,4220.769043,4259.871582,4202.436035,4459.102539,4233.333496,0.000000,3.000000,,,,0.000000,4.000000,4.000000,4.000000,4.000000,4.000000,4.000000,2.000000,4.000000,4.000000,4.000000,4.000000,4.000000,4.000000,4.000000,83.333336,,,,,,,,,,,,,,,,,,,,,,,,,,,,,,,,,,,,,,,,,,,,,,,,,,,,,,,,,,,,,,,,,,,,,,
1605179097.785729,17.000000,0.000000,4295.128418,4261.282227,4264.871582,4228.205078,4269.102539,4250.897461,4241.794922,4222.307617,4234.102539,4243.461426,4281.922852,4212.820313,4467.179688,4241.922852,0.000000,3.000000,,,,0.000000,4.000000,4.000000,4.000000,4.000000,4.000000,4.000000,2.000000,4.000000,4.000000,4.000000,4.000000,4.000000,4.000000,4.000000,83.333336,,,,,,,,,,,,,,,,,,,,,,,,,,,,,,,,,,,,,,,,,,,,,,,,,,,,,,,,,,,,,,,,,,,,,,
1605179097.793612,18.000000,0.000000,4295.769043,4262.051270,4263.589844,4224.230957,4260.897461,4248.589844,4241.922852,4220.769043,4232.692383,4242.948730,4283.461426,4210.897461,4464.871582,4243.846191,0.000000,3.000000,,,,0.000000,4.000000,4.000000,4.000000,4.000000,4.000000,4.000000,2.000000,4.000000,4.000000,4.000000,4.000000,4.000000,4.000000,4.000000,83.333336,,,,,,,,,,,,,,,,,,,,,,,,,,,,,,,,,,,,,,,,,,,,,,,,,,,,,,,,,,,,,,,,,,,,,,
1605179097.801595,19.000000,0.000000,4291.025879,4249.615234,4257.179688,4213.589844,4249.358887,4233.589844,4235.897461,4217.051270,4230.512695,4219.487305,4268.205078,4207.820313,4456.538574,4241.666504,0.000000,3.000000,,,,0.000000,4.000000,4.000000,4.000000,4.000000,4.000000,4.000000,2.000000,4.000000,4.000000,4.000000,4.000000,4.000000,4.000000,4.000000,83.333336,,,,,,,,,,,,,,,,,,,,,,,,,,,,,,,,,,,,,,,,,,,,,,,,,,,,,,,,,,,,,,,,,,,,,,
1605179097.809478,20.000000,0.000000,4281.922852,4244.615234,4256.794922,4211.410156,4241.922852,4233.077148,4233.589844,4220.512695,4235.128418,4218.717773,4266.025879,4206.794922,4455.256348,4238.974121,0.000000,3.000000,,,,0.000000,4.000000,4.000000,4.000000,4.000000,4.000000,4.000000,2.000000,4.000000,4.000000,4.000000,4.000000,4.000000,4.000000,4.000000,83.333336,,,,,,,,,,,,,,,,,,,,,,,,,,,,,,,,,,,,,,,,,,,,,,,,,,,,,,,,,,,,,,,,,,,,,,
1605179097.817461,21.000000,0.000000,4288.717773,4251.025879,4255.897461,4211.538574,4247.051270,4239.102539,4233.846191,4219.871582,4233.974121,4225.512695,4275.897461,4204.487305,4459.487305,4238.461426,0.000000,3.000000,,,,0.000000,4.000000,4.000000,4.000000,4.000000,4.000000,4.000000,2.000000,4.000000,4.000000,4.000000,4.000000,4.000000,4.000000,4.000000,83.333336,,,,,,,,,,,,,,,,,,,,,,,,,,,,,,,,,,,,,,,,,,,,,,,,,,,,,,,,,,,,,,,,,,,,,,
1605179097.825344,22.000000,0.000000,4295.512695,4246.794922,4252.051270,4206.794922,4255.128418,4233.333496,4231.282227,4210.384766,4222.051270,4211.410156,4272.692383,4200.128418,4455.769043,4234.358887,0.000000,3.000000,,,,0.000000,4.000000,4.000000,4.000000,4.000000,4.000000,4.000000,2.000000,4.000000,4.000000,4.000000,4.000000,4.000000,4.000000,4.000000,83.333336,,,,,,,,,,,,,,,,,,,,,,,,,,,,,,,,,,,,,,,,,,,,,,,,,,,,,,,,,,,,,,,,,,,,,,
1605179097.833327,23.000000,0.000000,4302.179688,4240.897461,4254.487305,4206.410156,4253.589844,4236.794922,4232.307617,4209.487305,4222.948730,4210.641113,4263.846191,4199.871582,4452.051270,4231.153809,0.000000,3.000000,,,,0.000000,4.000000,4.000000,4.000000,4.000000,4.000000,4.000000,2.000000,4.000000,4.000000,4.000000,4.000000,4.000000,4.000000,4.000000,83.333336,,,,,,,,,,,,,,,,,,,,,,,,,,,,,,,,,,,,,,,,,,,,,,,,,,,,,,,,,,,,,,,,,,,,,,
1605179097.841210,24.000000,0.000000,4309.871582,4250.128418,4262.692383,4214.871582,4251.538574,4247.307617,4236.538574,4219.743652,4237.307617,4241.666504,4275.000000,4206.025879,4459.358887,4238.205078,0.000000,3.000000,,,,0.000000,4.000000,4.000000,4.000000,4.000000,4.000000,4.000000,2.000000,4.000000,4.000000,4.000000,4.000000,4.000000,4.000000,4.000000,83.333336,,,,,,,,,,,,,,,,,,,,,,,,,,,,,,,,,,,,,,,,,,,,,,,,,,,,,,,,,,,,,,,,,,,,,,
1605179097.849193,25.000000,0.000000,4302.051270,4259.615234,4261.410156,4217.948730,4256.153809,4243.333496,4234.615234,4224.615234,4242.692383,4254.230957,4287.051270,4209.358887,4462.051270,4245.512695,0.000000,3.000000,,,,0.000000,4.000000,4.000000,4.000000,4.000000,4.000000,4.000000,2.000000,4.000000,4.000000,4.000000,4.000000,4.000000,4.000000,4.000000,83.333336,7.015218,2.317686,0.857354,0.905002,0.741770,1.715818,0.403937,0.702628,0.347934,0.257453,0.757784,0.534145,0.222976,0.098477,0.081794,1.235632,0.494469,0.380466,0.369859,0.206038,1.021516,0.622067,0.502710,0.239536,0.269648,0.322841,0.227112,0.325716,0.201686,0.194405,0.289213,0.178583,0.196867,0.141806,0.110321,0.348466,0.349694,0.174754,0.325424,0.211830,0.805595,0.878003,0.302458,0.489214,0.326698,2.174626,0.862591,0.744297,1.442866,1.010105,3.425031,1.275380,0.926777,1.009046,0.871444,1.778993,0.868831,0.315101,0.163355,0.260635,1.156473,0.371667,0.359186,0.336997,0.313362,2.837665,1.412813,0.463151,0.237059,0.351714
1605179097.857076,26.000000,0.000000,4300.128418,4257.179688,4255.641113,4212.948730,4256.538574,4235.128418,4230.384766,4220.384766,4236.153809,4238.205078,4281.282227,4209.871582,4455.256348,4244.102539,0.000000,3.000000,,,,0.000000,4.000000,4.000000,4.000000,4.000000,4.000000,4.000000,2.000000,4.000000,4.000000,4.000000,4.000000,4.000000,4.000000,4.000000,83.333336,,,,,,,,,,,,,,,,,,,,,,,,,,,,,,,,,,,,,,,,,,,,,,,,,,,,,,,,,,,,,,,,,,,,,,
1605179097.864859,27.000000,0.000000,4303.589844,4253.846191,4256.538574,4208.205078,4248.333496,4233.846191,4231.922852,4215.769043,4226.794922,4223.461426,4270.000000,4206.410156,4452.051270,4237.307617,0.000000,3.000000,,,,0.000000,4.000000,4.000000,4.000000,4.000000,4.000000,4.000000,2.000000,4.000000,4.000000,4.000000,4.000000,4.000000,4.000000,4.000000,83.333336,,,,,,,,,,,,,,,,,,,,,,,,,,,,,,,,,,,,,,,,,,,,,,,,,,,,,,,,,,,,,,,,,,,,,,
1605179097.872742,28.000000,0.000000,4302.692383,4255.000000,4260.256348,4208.974121,4251.153809,4230.769043,4235.128418,4212.948730,4220.897461,4223.846191,4270.384766,4203.717773,4454.743652,4234.743652,0.000000,3.000000,,,,0.000000,4.000000,4.000000,4.000000,4.000000,4.000000,4.000000,2.000000,4.000000,4.000000,4.000000,4.000000,4.000000,4.000000,4.000000,83.333336,,,,,,,,,,,,,,,,,,,,,,,,,,,,,,,,,,,,,,,,,,,,,,,,,,,,,,,,,,,,,,,,,,,,,,
1605179097.880525,29.000000,0.000000,4309.743652,4249.102539,4260.000000,4207.436035,4256.025879,4228.846191,4231.410156,4199.871582,4203.205078,4227.051270,4267.820313,4205.641113,4448.205078,4237.563965,0.000000,3.000000,,,,0.000000,4.000000,4.000000,4.000000,4.000000,4.000000,4.000000,2.000000,4.000000,4.000000,4.000000,4.000000,4.000000,4.000000,4.000000,83.333336,,,,,,,,,,,,,,,,,,,,,,,,,,,,,,,,,,,,,,,,,,,,,,,,,,,,,,,,,,,,,,,,,,,,,,
1605179097.888408,30.000000,0.000000,4330.897461,4255.000000,4259.743652,4213.717773,4258.589844,4241.282227,4232.307617,4194.743652,4192.948730,4233.205078,4272.436035,4211.282227,4445.384766,4243.589844,0.000000,3.000000,,,,0.000000,4.000000,4.000000,4.000000,4.000000,4.000000,4.000000,2.000000,4.000000,4.000000,4.000000,4.000000,4.000000,4.000000,4.000000,83.333336,,,,,,,,,,,,,,,,,,,,,,,,,,,,,,,,,,,,,,,,,,,,,,,,,,,,,,,,,,,,,,,,,,,,,,
1605179097.896191,31.000000,0.000000,4328.846191,4266.025879,4259.615234,4218.589844,4254.487305,4243.846191,4237.692383,4202.563965,4200.769043,4233.333496,4277.051270,4210.512695,4449.487305,4237.051270,0.000000,3.000000,,,,0.000000,4.000000,4.000000,4.000000,4.000000,4.000000,4.000000,2.000000,4.000000,4.000000,4.000000,4.000000,4.000000,4.000000,4.000000,83.333336,,,,,,,,,,,,,,,,,,,,,,,,,,,,,,,,,,,,,,,,,,,,,,,,,,,,,,,,,,,,,,,,,,,,,,
1605179097.904073,32.000000,0.000000,4314.743652,4267.179688,4257.692383,4217.051270,4254.615234,4232.436035,4236.794922,4201.282227,4203.333496,4227.948730,4273.461426,4205.256348,4448.846191,4232.051270,0.000000,3.000000,,,,0.000000,4.000000,4.000000,4.000000,4.000000,4.000000,4.000000,2.000000,4.000000,4.000000,4.000000,4.000000,4.000000,4.000000,4.000000,83.333336,,,,,,,,,,,,,,,,,,,,,,,,,,,,,,,,,,,,,,,,,,,,,,,,,,,,,,,,,,,,,,,,,,,,,,
1605179097.911856,33.000000,0.000000,4315.384766,4260.000000,4256.922852,4214.230957,4260.512695,4225.641113,4230.256348,4188.461426,4187.948730,4218.333496,4265.512695,4203.077148,4443.589844,4236.153809,0.000000,3.000000,,,,0.000000,4.000000,4.000000,4.000000,4.000000,4.000000,4.000000,2.000000,4.000000,4.000000,4.000000,4.000000,4.000000,4.000000,4.000000,83.333336,,,,,,,,,,,,,,,,,,,,,,,,,,,,,,,,,,,,,,,,,,,,,,,,,,,,,,,,,,,,,,,,,,,,,,
1605179097.919739,34.000000,0.000000,4326.922852,4263.974121,4261.922852,4220.128418,4266.153809,4241.153809,4235.769043,4196.410156,4192.948730,4230.000000,4278.717773,4212.307617,4448.205078,4246.922852,0.000000,3.000000,,,,0.000000,4.000000,4.000000,4.000000,4.000000,4.000000,4.000000,2.000000,4.000000,4.000000,4.000000,4.000000,4.000000,4.000000,4.000000,83.333336,,,,,,,,,,,,,,,,,,,,,,,,,,,,,,,,,,,,,,,,,,,,,,,,,,,,,,,,,,,,,,,,,,,,,,
1605179097.927521,35.000000,0.000000,4338.589844,4272.563965,4266.666504,4224.230957,4262.563965,4254.102539,4243.846191,4209.615234,4210.641113,4252.692383,4297.820313,4223.974121,4450.512695,4256.153809,0.000000,3.000000,,,,0.000000,4.000000,4.000000,4.000000,4.000000,4.000000,4.000000,2.000000,4.000000,4.000000,4.000000,4.000000,4.000000,4.000000,4.000000,83.333336,,,,,,,,,,,,,,,,,,,,,,,,,,,,,,,,,,,,,,,,,,,,,,,,,,,,,,,,,,,,,,,,,,,,,,
1605179097.935404,36.000000,0.000000,4332.051270,4270.256348,4265.384766,4223.846191,4260.897461,4245.769043,4239.743652,4201.666504,4208.461426,4250.256348,4300.128418,4224.871582,4447.563965,4259.230957,0.000000,3.000000,,,,0.000000,4.000000,4.000000,4.000000,4.000000,4.000000,4.000000,2.000000,4.000000,4.000000,4.000000,4.000000,4.000000,4.000000,4.000000,83.333336,,,,,,,,,,,,,,,,,,,,,,,,,,,,,,,,,,,,,,,,,,,,,,,,,,,,,,,,,,,,,,,,,,,,,,
1605179097.943186,37.000000,0.000000,4311.410156,4248.717773,4260.641113,4213.333496,4256.794922,4231.538574,4232.820313,4192.948730,4197.692383,4226.666504,4282.692383,4212.948730,4441.922852,4247.563965,0.000000,3.000000,,,,0.000000,4.000000,4.000000,4.000000,4.000000,4.000000,4.000000,2.000000,4.000000,4.000000,4.000000,4.000000,4.000000,4.000000,4.000000,83.333336,,,,,,,,,,,,,,,,,,,,,,,,,,,,,,,,,,,,,,,,,,,,,,,,,,,,,,,,,,,,,,,,,,,,,,
1605179097.951069,38.000000,0.000000,4318.077148,4242.820313,4259.102539,4209.102539,4250.384766,4234.871582,4235.512695,4200.384766,4201.538574,4229.102539,4276.025879,4207.307617,4438.589844,4239.487305,0.000000,3.000000,,,,0.000000,4.000000,4.000000,4.000000,4.000000,4.000000,4.000000,2.000000,4.000000,4.000000,4.000000,4.000000,4.000000,4.000000,4.000000,83.333336,,,,,,,,,,,,,,,,,,,,,,,,,,,,,,,,,,,,,,,,,,,,,,,,,,,,,,,,,,,,,,,,,,,,,,
1605179097.958851,39.000000,0.000000,4335.512695,4264.743652,4265.641113,4220.641113,4252.051270,4241.666504,4237.563965,4207.179688,4210.384766,4249.102539,4286.153809,4210.384766,4437.051270,4241.153809,0.000000,3.000000,,,,0.000000,4.000000,4.000000,4.000000,4.000000,4.000000,4.000000,2.000000,4.000000,4.000000,4.000000,4.000000,4.000000,4.000000,4.000000,83.333336,,,,,,,,,,,,,,,,,,,,,,,,,,,,,,,,,,,,,,,,,,,,,,,,,,,,,,,,,,,,,,,,,,,,,,
1605179097.966834,40.000000,0.000000,4342.179688,4285.256348,4271.282227,4233.589844,4264.102539,4241.794922,4236.153809,4210.897461,4215.384766,4255.256348,4291.153809,4210.897461,4437.436035,4239.615234,0.000000,3.000000,,,,0.000000,4.000000,4.000000,4.000000,4.000000,4.000000,4.000000,2.000000,4.000000,4.000000,4.000000,4.000000,4.000000,4.000000,4.000000,83.333336,,,,,,,,,,,,,,,,,,,,,,,,,,,,,,,,,,,,,,,,,,,,,,,,,,,,,,,,,,,,,,,,,,,,,,
1605179097.974717,41.000000,0.000000,4348.846191,4288.589844,4268.077148,4232.436035,4266.025879,4240.384766,4235.000000,4206.794922,4207.307617,4242.948730,4277.820313,4201.153809,4427.692383,4225.512695,0.000000,3.000000,,,,0.000000,4.000000,4.000000,4.000000,4.000000,4.000000,4.000000,2.000000,4.000000,4.000000,4.000000,4.000000,4.000000,4.000000,4.000000,83.333336,10.944052,1.768464,1.094106,0.871670,0.694467,2.408033,0.469009,0.891024,0.364994,0.258623,0.865318,0.409109,0.208888,0.099369,0.089703,1.520055,0.396417,0.453905,0.349441,0.209543,1.177405,0.467938,0.570534,0.226602,0.257607,0.371185,0.190321,0.325490,0.227838,0.207187,0.316473,0.146257,0.201275,0.139953,0.120928,0.430039,0.402193,0.154220,0.300135,0.226715,0.965121,0.926954,0.295579,0.441132,0.350305,2.735156,0.894553,0.693287,1.380173,1.049304,3.812292,1.185734,0.950911,0.923951,0.867720,2.143650,0.810000,0.325864,0.140129,0.275642,1.233562,0.393839,0.305318,0.317684,0.292178,3.652623,1.297443,0.495392,0.211472,0.365907
1605179097.982700,42.000000,0.000000,4348.077148,4297.307617,4261.922852,4231.922852,4260.641113,4236.153809,4231.025879,4195.641113,4194.358887,4221.282227,4259.615234,4192.948730,4410.256348,4215.512695,0.000000,3.000000,,,,0.000000,4.000000,4.000000,4.000000,4.000000,4.000000,4.000000,2.000000,4.000000,4.000000,4.000000,4.000000,4.000000,4.000000,4.000000,83.333336,,,,,,,,,,,,,,,,,,,,,,,,,,,,,,,,,,,,,,,,,,,,,,,,,,,,,,,,,,,,,,,,,,,,,,
1605179097.990583,43.000000,0.000000,4327.436035,4312.563965,4267.051270,4240.000000,4267.051270,4231.666504,4229.102539,4194.487305,4194.871582,4214.743652,4258.205078,4197.051270,4406.153809,4222.179688,0.000000,3.000000,,,,0.000000,4.000000,4.000000,4.000000,4.000000,4.000000,4.000000,2.000000,4.000000,4.000000,4.000000,4.000000,4.000000,4.000000,4.000000,83.333336,,,,,,,,,,,,,,,,,,,,,,,,,,,,,,,,,,,,,,,,,,,,,,,,,,,,,,,,,,,,,,,,,,,,,,
1605179097.998566,44.000000,0.000000,4321.410156,4311.025879,4269.230957,4241.538574,4276.025879,4231.410156,4231.922852,4195.897461,4196.282227,4217.051270,4258.589844,4200.384766,4407.692383,4227.948730,0.000000,3.000000,,,,0.000000,4.000000,4.000000,4.000000,4.000000,4.000000,4.000000,2.000000,4.000000,4.000000,4.000000,4.000000,4.000000,4.000000,4.000000,83.333336,,,,,,,,,,,,,,,,,,,,,,,,,,,,,,,,,,,,,,,,,,,,,,,,,,,,,,,,,,,,,,,,,,,,,,
1605179098.006449,45.000000,0.000000,4332.820313,4304.102539,4263.077148,4238.205078,4273.077148,4231.666504,4232.563965,4192.051270,4191.025879,4218.974121,4256.538574,4200.128418,4404.487305,4224.102539,0.000000,3.000000,,,,0.000000,4.000000,4.000000,4.000000,4.000000,4.000000,4.000000,2.000000,4.000000,4.000000,4.000000,4.000000,4.000000,4.000000,4.000000,83.333336,,,,,,,,,,,,,,,,,,,,,,,,,,,,,,,,,,,,,,,,,,,,,,,,,,,,,,,,,,,,,,,,,,,,,,
1605179098.014232,46.000000,0.000000,4328.717773,4300.000000,4262.563965,4237.563965,4262.179688,4231.794922,4229.358887,4190.641113,4188.205078,4219.743652,4254.487305,4197.820313,4402.051270,4218.333496,0.000000,3.000000,,,,0.000000,4.000000,4.000000,4.000000,4.000000,4.000000,4.000000,2.000000,4.000000,4.000000,4.000000,4.000000,4.000000,4.000000,4.000000,83.333336,,,,,,,,,,,,,,,,,,,,,,,,,,,,,,,,,,,,,,,,,,,,,,,,,,,,,,,,,,,,,,,,,,,,,,
1605179098.022115,47.000000,0.000000,4323.461426,4296.666504,4265.769043,4238.974121,4260.000000,4235.000000,4230.384766,4193.461426,4190.384766,4213.205078,4251.153809,4195.384766,4404.487305,4215.256348,0.000000,3.000000,,,,0.000000,4.000000,4.000000,4.000000,4.000000,4.000000,4.000000,2.000000,4.000000,4.000000,4.000000,4.000000,4.000000,4.000000,4.000000,83.333336,,,,,,,,,,,,,,,,,,,,,,,,,,,,,,,,,,,,,,,,,,,,,,,,,,,,,,,,,,,,,,,,,,,,,,
1605179098.029898,48.000000,0.000000,4314.102539,4292.563965,4263.717773,4233.974121,4264.358887,4233.589844,4231.025879,4188.461426,4184.615234,4202.692383,4244.743652,4191.538574,4403.333496,4209.743652,0.000000,3.000000,,,,0.000000,4.000000,4.000000,4.000000,4.000000,4.000000,4.000000,2.000000,4.000000,4.000000,4.000000,4.000000,4.000000,4.000000,4.000000,83.333336,,,,,,,,,,,,,,,,,,,,,,,,,,,,,,,,,,,,,,,,,,,,,,,,,,,,,,,,,,,,,,,,,,,,,,
1605179098.037881,49.000000,0.000000,4311.025879,4294.615234,4259.487305,4234.102539,4268.461426,4229.743652,4229.615234,4185.000000,4181.153809,4203.589844,4246.666504,4189.743652,4400.384766,4208.461426,0.000000,3.000000,,,,0.000000,4.000000,4.000000,4.000000,4.000000,4.000000,4.000000,2.000000,4.000000,4.000000,4.000000,4.000000,4.000000,4.000000,4.000000,83.333336,,,,,,,,,,,,,,,,,,,,,,,,,,,,,,,,,,,,,,,,,,,,,,,,,,,,,,,,,,,,,,,,,,,,,,
1605179098.045764,50.000000,0.000000,4312.436035,4289.358887,4255.897461,4232.436035,4260.000000,4225.128418,4228.461426,4185.769043,4179.871582,4198.205078,4242.948730,4188.589844,4392.436035,4206.538574,0.000000,3.000000,,,,0.000000,4.000000,4.000000,4.000000,4.000000,4.000000,4.000000,2.000000,4.000000,4.000000,4.000000,4.000000,4.000000,4.000000,4.000000,83.333336,,,,,,,,,,,,,,,,,,,,,,,,,,,,,,,,,,,,,,,,,,,,,,,,,,,,,,,,,,,,,,,,,,,,,,
1605179098.053748,51.000000,0.000000,4307.820313,4281.666504,4252.820313,4225.512695,4252.820313,4229.358887,4233.077148,4189.102539,4184.230957,4193.077148,4237.436035,4187.692383,4385.128418,4204.871582,0.000000,3.000000,,,,0.000000,4.000000,4.000000,4.000000,4.000000,4.000000,4.000000,2.000000,4.000000,4.000000,4.000000,4.000000,4.000000,4.000000,4.000000,83.333336,,,,,,,,,,,,,,,,,,,,,,,,,,,,,,,,,,,,,,,,,,,,,,,,,,,,,,,,,,,,,,,,,,,,,,
1605179098.061631,52.000000,0.000000,4305.128418,4275.256348,4253.461426,4216.025879,4249.615234,4233.461426,4239.487305,4192.436035,4189.230957,4198.205078,4235.641113,4186.922852,4383.717773,4203.589844,0.000000,3.000000,,,,0.000000,4.000000,4.000000,4.000000,4.000000,4.000000,4.000000,2.000000,4.000000,4.000000,4.000000,4.000000,4.000000,4.000000,4.000000,83.333336,,,,,,,,,,,,,,,,,,,,,,,,,,,,,,,,,,,,,,,,,,,,,,,,,,,,,,,,,,,,,,,,,,,,,,
1605179098.069614,53.000000,0.000000,4317.051270,4280.256348,4257.179688,4219.871582,4250.512695,4236.538574,4245.641113,4201.666504,4200.769043,4216.538574,4251.538574,4195.000000,4393.846191,4213.077148,0.000000,3.000000,,,,0.000000,4.000000,4.000000,4.000000,4.000000,4.000000,4.000000,2.000000,4.000000,4.000000,4.000000,4.000000,4.000000,4.000000,4.000000,83.333336,,,,,,,,,,,,,,,,,,,,,,,,,,,,,,,,,,,,,,,,,,,,,,,,,,,,,,,,,,,,,,,,,,,,,,
1605179098.077498,54.000000,0.000000,4320.512695,4282.948730,4257.692383,4225.897461,4248.077148,4235.384766,4243.846191,4212.436035,4213.846191,4231.410156,4269.102539,4202.051270,4398.846191,4220.897461,0.000000,3.000000,,,,0.000000,4.000000,4.000000,4.000000,4.000000,4.000000,4.000000,2.000000,4.000000,4.000000,4.000000,4.000000,4.000000,4.000000,4.000000,83.333336,,,,,,,,,,,,,,,,,,,,,,,,,,,,,,,,,,,,,,,,,,,,,,,,,,,,,,,,,,,,,,,,,,,,,,
1605179098.085481,55.000000,0.000000,4313.717773,4279.358887,4257.436035,4225.769043,4253.974121,4233.589844,4237.436035,4214.230957,4217.179688,4229.615234,4268.333496,4200.512695,4398.589844,4217.948730,0.000000,3.000000,,,,0.000000,4.000000,4.000000,4.000000,4.000000,4.000000,4.000000,2.000000,4.000000,4.000000,4.000000,4.000000,4.000000,4.000000,4.000000,83.333336,,,,,,,,,,,,,,,,,,,,,,,,,,,,,,,,,,,,,,,,,,,,,,,,,,,,,,,,,,,,,,,,,,,,,,
1605179098.093364,56.000000,0.000000,4304.615234,4274.487305,4254.230957,4216.538574,4257.820313,4228.077148,4232.179688,4201.153809,4203.589844,4220.769043,4252.179688,4191.538574,4395.512695,4207.307617,0.000000,3.000000,,,,0.000000,4.000000,4.000000,4.000000,4.000000,4.000000,4.000000,2.000000,4.000000,4.000000,4.000000,4.000000,4.000000,4.000000,4.000000,83.333336,,,,,,,,,,,,,,,,,,,,,,,,,,,,,,,,,,,,,,,,,,,,,,,,,,,,,,,,,,,,,,,,,,,,,,
1605179098.101347,57.000000,0.000000,4303.717773,4284.230957,4250.897461,4213.333496,4255.256348,4230.128418,4236.538574,4194.871582,4196.922852,4233.461426,4254.871582,4189.871582,4398.461426,4209.615234,0.000000,3.000000,,,,0.000000,4.000000,4.000000,4.000000,4.000000,4.000000,4.000000,2.000000,4.000000,4.000000,4.000000,4.000000,4.000000,4.000000,4.000000,83.333336,15.732353,1.449300,1.474723,0.821819,0.692792,3.245601,0.560958,1.057772,0.392130,0.263390,0.953105,0.283838,0.191309,0.100620,0.101332,1.818815,0.305334,0.518587,0.338078,0.218382,1.361049,0.335646,0.636491,0.233751,0.250857,0.435310,0.160735,0.308179,0.260280,0.224015,0.347026,0.125725,0.194633,0.144205,0.131741,0.497876,0.438958,0.138164,0.302995,0.248884,1.100498,0.927775,0.300685,0.468406,0.388201,3.212292,0.897533,0.669189,1.305432,1.112752,3.916782,1.079327,1.007914,0.845540,0.881793,2.429484,0.751107,0.331683,0.123806,0.297898,1.315846,0.402122,0.274567,0.302190,0.273251,4.411194,1.190608,0.523136,0.203868,0.406838
1605179098.109231,58.000000,0.000000,4316.922852,4293.589844,4255.512695,4220.512695,4257.436035,4238.589844,4243.205078,4203.846191,4206.922852,4237.436035,4270.384766,4197.051270,4403.846191,4220.512695,0.000000,3.000000,,,,0.000000,4.000000,4.000000,4.000000,4.000000,4.000000,4.000000,2.000000,4.000000,4.000000,4.000000,4.000000,4.000000,4.000000,4.000000,83.333336,,,,,,,,,,,,,,,,,,,,,,,,,,,,,,,,,,,,,,,,,,,,,,,,,,,,,,,,,,,,,,,,,,,,,,
1605179098.117214,59.000000,0.000000,4325.641113,4290.128418,4258.974121,4226.025879,4263.333496,4238.846191,4239.487305,4209.102539,4210.512695,4219.871582,4264.743652,4198.717773,4399.102539,4216.538574,0.000000,3.000000,,,,0.000000,4.000000,4.000000,4.000000,4.000000,4.000000,4.000000,2.000000,4.000000,4.000000,4.000000,4.000000,4.000000,4.000000,4.000000,83.333336,,,,,,,,,,,,,,,,,,,,,,,,,,,,,,,,,,,,,,,,,,,,,,,,,,,,,,,,,,,,,,,,,,,,,,
1605179098.125097,60.000000,0.000000,4316.922852,4281.538574,4256.666504,4222.051270,4258.717773,4235.512695,4233.974121,4201.025879,4200.128418,4220.897461,4249.743652,4190.000000,4392.051270,4202.179688,0.000000,3.000000,,,,0.000000,4.000000,4.000000,4.000000,4.000000,4.000000,4.000000,2.000000,4.000000,4.000000,4.000000,4.000000,4.000000,4.000000,4.000000,83.333336,,,,,,,,,,,,,,,,,,,,,,,,,,,,,,,,,,,,,,,,,,,,,,,,,,,,,,,,,,,,,,,,,,,,,,
1605179098.133080,61.000000,0.000000,4318.846191,4278.846191,4254.102539,4219.615234,4254.743652,4235.128418,4235.128418,4197.179688,4195.897461,4230.641113,4249.615234,4187.692383,4393.717773,4203.333496,0.000000,3.000000,,,,0.000000,4.000000,4.000000,4.000000,4.000000,4.000000,4.000000,2.000000,4.000000,4.000000,4.000000,4.000000,4.000000,4.000000,4.000000,83.333336,,,,,,,,,,,,,,,,,,,,,,,,,,,,,,,,,,,,,,,,,,,,,,,,,,,,,,,,,,,,,,,,,,,,,,
1605179098.140963,62.000000,0.000000,4324.871582,4286.282227,4253.974121,4224.615234,4259.487305,4233.589844,4236.794922,4198.461426,4196.025879,4219.230957,4255.769043,4196.538574,4398.333496,4216.538574,0.000000,3.000000,,,,0.000000,4.000000,4.000000,4.000000,4.000000,4.000000,4.000000,2.000000,4.000000,4.000000,4.000000,4.000000,4.000000,4.000000,4.000000,83.333336,,,,,,,,,,,,,,,,,,,,,,,,,,,,,,,,,,,,,,,,,,,,,,,,,,,,,,,,,,,,,,,,,,,,,,
1605179098.148946,63.000000,0.000000,4313.717773,4287.436035,4253.589844,4219.358887,4250.256348,4232.692383,4235.897461,4195.384766,4193.717773,4212.179688,4246.410156,4196.922852,4393.077148,4215.512695,0.000000,3.000000,,,,0.000000,4.000000,4.000000,4.000000,4.000000,4.000000,4.000000,2.000000,4.000000,4.000000,4.000000,4.000000,4.000000,4.000000,4.000000,83.333336,,,,,,,,,,,,,,,,,,,,,,,,,,,,,,,,,,,,,,,,,,,,,,,,,,,,,,,,,,,,,,,,,,,,,,
1605179098.156829,64.000000,0.000000,4316.666504,4275.512695,4256.922852,4212.563965,4239.487305,4236.410156,4237.051270,4198.717773,4202.820313,4226.153809,4238.333496,4191.410156,4384.487305,4205.000000,1632.000000,3.000000,,,,0.000000,4.000000,4.000000,4.000000,4.000000,4.000000,4.000000,2.000000,4.000000,4.000000,4.000000,4.000000,4.000000,4.000000,4.000000,83.333336,,,,,,,,,,,,,,,,,,,,,,,,,,,,,,,,,,,,,,,,,,,,,,,,,,,,,,,,,,,,,,,,,,,,,,
1605179098.164612,65.000000,0.000000,4330.256348,4267.051270,4258.717773,4217.820313,4248.461426,4235.384766,4238.077148,4198.974121,4206.666504,4224.230957,4243.717773,4190.769043,4384.615234,4202.051270,3232.000000,3.000000,,,,0.000000,4.000000,4.000000,4.000000,4.000000,4.000000,4.000000,2.000000,4.000000,4.000000,4.000000,4.000000,4.000000,4.000000,4.000000,83.333336,,,,,,,,,,,,,,,,,,,,,,,,,,,,,,,,,,,,,,,,,,,,,,,,,,,,,,,,,,,,,,,,,,,,,,
1605179098.172495,66.000000,0.000000,4327.179688,4267.820313,4254.743652,4217.692383,4253.461426,4226.922852,4235.256348,4192.307617,4195.384766,4210.384766,4251.666504,4190.384766,4395.128418,4206.666504,2999.000000,3.000000,,,,0.000000,4.000000,4.000000,4.000000,4.000000,4.000000,4.000000,2.000000,4.000000,4.000000,4.000000,4.000000,4.000000,4.000000,4.000000,83.333336,,,,,,,,,,,,,,,,,,,,,,,,,,,,,,,,,,,,,,,,,,,,,,,,,,,,,,,,,,,,,,,,,,,,,,
1605179098.180278,67.000000,0.000000,4308.077148,4255.512695,4249.871582,4199.230957,4231.410156,4217.820313,4228.077148,4186.666504,4185.512695,4204.102539,4247.692383,4191.794922,4401.794922,4210.769043,3304.000000,3.000000,,,,0.000000,4.000000,4.000000,4.000000,4.000000,4.000000,4.000000,2.000000,4.000000,4.000000,4.000000,4.000000,4.000000,4.000000,4.000000,83.333336,,,,,,,,,,,,,,,,,,,,,,,,,,,,,,,,,,,,,,,,,,,,,,,,,,,,,,,,,,,,,,,,,,,,,,
1605179098.188161,68.000000,0.000000,4301.794922,4240.512695,4252.179688,4193.461426,4218.974121,4223.077148,4230.641113,4190.128418,4194.615234,4216.794922,4255.512695,4203.589844,4410.897461,4222.179688,3487.000000,3.000000,,,,0.000000,4.000000,4.000000,4.000000,4.000000,4.000000,4.000000,2.000000,4.000000,4.000000,4.000000,4.000000,4.000000,4.000000,4.000000,83.333336,,,,,,,,,,,,,,,,,,,,,,,,,,,,,,,,,,,,,,,,,,,,,,,,,,,,,,,,,,,,,,,,,,,,,,
1605179098.195944,69.000000,0.000000,4303.077148,4239.358887,4259.615234,4200.000000,4224.102539,4230.897461,4239.615234,4197.948730,4207.948730,4236.282227,4277.307617,4214.615234,4428.077148,4233.974121,2662.000000,3.000000,,,,0.000000,4.000000,4.000000,4.000000,4.000000,4.000000,4.000000,2.000000,4.000000,4.000000,4.000000,4.000000,4.000000,4.000000,4.000000,83.333336,,,,,,,,,,,,,,,,,,,,,,,,,,,,,,,,,,,,,,,,,,,,,,,,,,,,,,,,,,,,,,,,,,,,,,
1605179098.203826,70.000000,0.000000,4307.179688,4246.153809,4260.384766,4201.794922,4228.205078,4229.871582,4239.871582,4206.666504,4216.282227,4254.102539,4294.102539,4219.102539,4442.179688,4241.794922,1590.000000,3.000000,,,,0.000000,4.000000,4.000000,4.000000,4.000000,4.000000,4.000000,2.000000,4.000000,4.000000,4.000000,4.000000,4.000000,4.000000,4.000000,83.333336,,,,,,,,,,,,,,,,,,,,,,,,,,,,,,,,,,,,,,,,,,,,,,,,,,,,,,,,,,,,,,,,,,,,,,
1605179098.211609,71.000000,0.000000,4316.666504,4246.410156,4255.512695,4199.743652,4229.743652,4222.307617,4235.128418,4209.743652,4220.641113,4261.025879,4295.512695,4216.922852,4441.282227,4239.230957,2011.000000,3.000000,,,,0.000000,4.000000,4.000000,4.000000,4.000000,4.000000,4.000000,2.000000,4.000000,4.000000,4.000000,4.000000,4.000000,4.000000,4.000000,83.333336,,,,,,,,,,,,,,,,,,,,,,,,,,,,,,,,,,,,,,,,,,,,,,,,,,,,,,,,,,,,,,,,,,,,,,
1605179098.219492,72.000000,0.000000,4319.358887,4248.974121,4256.025879,4204.871582,4239.743652,4227.436035,4240.897461,4211.922852,4229.743652,4265.000000,4301.794922,4219.615234,4442.948730,4238.846191,2870.000000,3.000000,,,,0.000000,4.000000,4.000000,4.000000,4.000000,4.000000,4.000000,2.000000,4.000000,4.000000,4.000000,4.000000,4.000000,4.000000,4.000000,83.333336,,,,,,,,,,,,,,,,,,,,,,,,,,,,,,,,,,,,,,,,,,,,,,,,,,,,,,,,,,,,,,,,,,,,,,
1605179098.227274,73.000000,0.000000,4310.897461,4250.897461,4258.974121,4207.436035,4242.307617,4233.846191,4244.871582,4211.538574,4229.487305,4259.615234,4305.897461,4221.410156,4444.871582,4239.230957,3445.000000,3.000000,,,,0.000000,4.000000,4.000000,4.000000,4.000000,4.000000,4.000000,2.000000,4.000000,4.000000,4.000000,4.000000,4.000000,4.000000,4.000000,83.333336,20.479006,1.430306,1.919309,0.792486,0.727906,3.962271,0.696859,1.166640,0.434456,0.271410,0.994655,0.182676,0.177014,0.102770,0.111903,2.025878,0.245961,0.568743,0.343114,0.229087,1.536060,0.274204,0.683282,0.269484,0.251660,0.503661,0.146047,0.283636,0.301648,0.241394,0.385872,0.124461,0.181994,0.151131,0.140064,0.575045,0.450426,0.133597,0.333037,0.272034,1.259062,0.876354,0.325138,0.555726,0.427381,3.479588,0.848511,0.705389,1.249456,1.170709,3.773273,0.966268,1.096216,0.797361,0.904889,2.565432,0.702435,0.338103,0.115331,0.319152,1.417727,0.396860,0.271526,0.298100,0.258468,4.898953,1.100581,0.552326,0.211496,0.457068
1605179098.235157,74.000000,0.000000,4311.282227,4253.846191,4259.102539,4209.358887,4241.410156,4234.230957,4243.846191,4212.820313,4227.563965,4253.077148,4305.256348,4220.384766,4441.538574,4238.717773,2407.000000,3.000000,,,,0.000000,4.000000,4.000000,4.000000,4.000000,4.000000,4.000000,2.000000,4.000000,4.000000,4.000000,4.000000,4.000000,4.000000,4.000000,83.333336,,,,,,,,,,,,,,,,,,,,,,,,,,,,,,,,,,,,,,,,,,,,,,,,,,,,,,,,,,,,,,,,,,,,,,
1605179098.242940,75.000000,0.000000,4322.692383,4257.307617,4260.128418,4210.897461,4241.153809,4236.025879,4244.871582,4221.538574,4237.948730,4267.563965,4311.538574,4220.256348,4443.589844,4240.384766,2753.000000,3.000000,,,,0.000000,4.000000,4.000000,4.000000,4.000000,4.000000,4.000000,2.000000,4.000000,4.000000,4.000000,4.000000,4.000000,4.000000,4.000000,83.333336,,,,,,,,,,,,,,,,,,,,,,,,,,,,,,,,,,,,,,,,,,,,,,,,,,,,,,,,,,,,,,,,,,,,,,
1605179098.250822,76.000000,0.000000,4335.512695,4261.538574,4259.487305,4213.717773,4243.205078,4239.615234,4245.641113,4225.384766,4243.333496,4281.153809,4323.461426,4221.538574,4451.410156,4242.179688,4233.000000,3.000000,,,,0.000000,4.000000,4.000000,4.000000,4.000000,4.000000,4.000000,2.000000,4.000000,4.000000,4.000000,4.000000,4.000000,4.000000,4.000000,83.333336,,,,,,,,,,,,,,,,,,,,,,,,,,,,,,,,,,,,,,,,,,,,,,,,,,,,,,,,,,,,,,,,,,,,,,
1605179098.258605,77.000000,0.000000,4318.205078,4254.230957,4254.358887,4207.948730,4237.820313,4233.333496,4242.436035,4213.846191,4226.538574,4258.846191,4306.538574,4215.128418,4442.563965,4232.179688,2119.000000,3.000000,,,,0.000000,4.000000,4.000000,4.000000,4.000000,4.000000,4.000000,2.000000,4.000000,4.000000,4.000000,4.000000,4.000000,4.000000,4.000000,83.333336,,,,,,,,,,,,,,,,,,,,,,,,,,,,,,,,,,,,,,,,,,,,,,,,,,,,,,,,,,,,,,,,,,,,,,
1605179098.266588,78.000000,0.000000,4288.333496,4240.641113,4250.512695,4197.692383,4226.538574,4223.333496,4239.871582,4202.051270,4212.307617,4229.230957,4266.410156,4204.358887,4424.102539,4220.512695,2407.000000,3.000000,,,,0.000000,4.000000,4.000000,4.000000,4.000000,4.000000,4.000000,2.000000,4.000000,4.000000,4.000000,4.000000,4.000000,4.000000,4.000000,83.333336,,,,,,,,,,,,,,,,,,,,,,,,,,,,,,,,,,,,,,,,,,,,,,,,,,,,,,,,,,,,,,,,,,,,,,
1605179098.274471,79.000000,0.000000,4288.974121,4236.153809,4251.922852,4195.897461,4221.282227,4221.282227,4236.666504,4196.922852,4207.820313,4223.461426,4246.538574,4201.666504,4416.666504,4215.384766,2753.000000,3.000000,,,,0.000000,4.000000,4.000000,4.000000,4.000000,4.000000,4.000000,2.000000,4.000000,4.000000,4.000000,4.000000,4.000000,4.000000,4.000000,83.333336,,,,,,,,,,,,,,,,,,,,,,,,,,,,,,,,,,,,,,,,,,,,,,,,,,,,,,,,,,,,,,,,,,,,,,
1605179098.282454,80.000000,0.000000,4301.153809,4238.717773,4248.717773,4197.436035,4222.820313,4225.769043,4237.051270,4194.230957,4202.436035,4226.153809,4245.512695,4197.307617,4414.743652,4207.436035,4233.000000,3.000000,,,,0.000000,4.000000,4.000000,4.000000,4.000000,4.000000,4.000000,2.000000,4.000000,4.000000,4.000000,4.000000,4.000000,4.000000,4.000000,83.333336,,,,,,,,,,,,,,,,,,,,,,,,,,,,,,,,,,,,,,,,,,,,,,,,,,,,,,,,,,,,,,,,,,,,,,
1605179098.290337,81.000000,0.000000,4289.102539,4236.922852,4242.307617,4192.179688,4218.333496,4229.230957,4243.717773,4198.846191,4205.384766,4219.487305,4239.358887,4189.102539,4409.230957,4200.256348,2119.000000,3.000000,,,,0.000000,4.000000,4.000000,4.000000,4.000000,4.000000,4.000000,2.000000,4.000000,4.000000,4.000000,4.000000,4.000000,4.000000,4.000000,83.333336,,,,,,,,,,,,,,,,,,,,,,,,,,,,,,,,,,,,,,,,,,,,,,,,,,,,,,,,,,,,,,,,,,,,,,
1605179098.298320,82.000000,0.000000,4280.641113,4234.102539,4243.333496,4191.410156,4211.922852,4229.358887,4245.128418,4205.641113,4215.769043,4220.512695,4235.512695,4192.436035,4410.641113,4205.256348,2407.000000,3.000000,,,,0.000000,4.000000,4.000000,4.000000,4.000000,4.000000,4.000000,2.000000,4.000000,4.000000,4.000000,4.000000,4.000000,4.000000,4.000000,83.333336,,,,,,,,,,,,,,,,,,,,,,,,,,,,,,,,,,,,,,,,,,,,,,,,,,,,,,,,,,,,,,,,,,,,,,
1605179098.306203,83.000000,0.000000,4301.282227,4243.205078,4254.102539,4204.230957,4228.077148,4235.512695,4246.153809,4213.974121,4230.384766,4240.769043,4260.000000,4206.538574,4424.230957,4218.974121,2753.000000,3.000000,,,,0.000000,4.000000,4.000000,4.000000,4.000000,4.000000,4.000000,2.000000,4.000000,4.000000,4.000000,4.000000,4.000000,4.000000,4.000000,83.333336,,,,,,,,,,,,,,,,,,,,,,,,,,,,,,,,,,,,,,,,,,,,,,,,,,,,,,,,,,,,,,,,,,,,,,
1605179098.314086,84.000000,0.000000,4296.794922,4245.512695,4255.128418,4206.410156,4237.051270,4238.461426,4244.487305,4214.871582,4232.692383,4243.333496,4267.563965,4205.128418,4426.153809,4219.487305,4233.000000,3.000000,,,,0.000000,4.000000,4.000000,4.000000,4.000000,4.000000,4.000000,2.000000,4.000000,4.000000,4.000000,4.000000,4.000000,4.000000,4.000000,83.333336,,,,,,,,,,,,,,,,,,,,,,,,,,,,,,,,,,,,,,,,,,,,,,,,,,,,,,,,,,,,,,,,,,,,,,
1605179098.321969,85.000000,0.000000,4274.487305,4237.051270,4246.794922,4198.205078,4229.743652,4233.077148,4239.358887,4206.410156,4219.743652,4226.666504,4249.230957,4196.410156,4419.615234,4210.128418,2119.000000,3.000000,,,,0.000000,4.000000,4.000000,4.000000,4.000000,4.000000,4.000000,2.000000,4.000000,4.000000,4.000000,4.000000,4.000000,4.000000,4.000000,83.333336,,,,,,,,,,,,,,,,,,,,,,,,,,,,,,,,,,,,,,,,,,,,,,,,,,,,,,,,,,,,,,,,,,,,,,
1605179098.329752,86.000000,0.000000,4279.615234,4232.692383,4247.307617,4194.615234,4224.871582,4231.538574,4240.000000,4203.333496,4213.205078,4220.769043,4249.230957,4199.487305,4420.641113,4210.384766,2407.000000,3.000000,,,,0.000000,4.000000,4.000000,4.000000,4.000000,4.000000,4.000000,2.000000,4.000000,4.000000,4.000000,4.000000,4.000000,4.000000,4.000000,83.333336,,,,,,,,,,,,,,,,,,,,,,,,,,,,,,,,,,,,,,,,,,,,,,,,,,,,,,,,,,,,,,,,,,,,,,
1605179098.337634,87.000000,0.000000,4298.333496,4239.358887,4253.461426,4203.333496,4227.307617,4236.282227,4243.846191,4208.974121,4222.563965,4234.102539,4266.794922,4208.717773,4427.820313,4222.948730,2753.000000,3.000000,,,,0.000000,4.000000,4.000000,4.000000,4.000000,4.000000,4.000000,2.000000,4.000000,4.000000,4.000000,4.000000,4.000000,4.000000,4.000000,83.333336,,,,,,,,,,,,,,,,,,,,,,,,,,,,,,,,,,,,,,,,,,,,,,,,,,,,,,,,,,,,,,,,,,,,,,
1605179098.345417,88.000000,0.000000,4295.512695,4238.589844,4253.974121,4206.153809,4222.948730,4226.538574,4235.128418,4206.282227,4218.589844,4230.000000,4257.436035,4208.461426,4424.487305,4223.717773,4233.000000,3.000000,,,,0.000000,4.000000,4.000000,4.000000,4.000000,4.000000,4.000000,2.000000,4.000000,4.000000,4.000000,4.000000,4.000000,4.000000,4.000000,83.333336,,,,,,,,,,,,,,,,,,,,,,,,,,,,,,,,,,,,,,,,,,,,,,,,,,,,,,,,,,,,,,,,,,,,,,
1605179098.353401,89.000000,0.000000,4292.692383,4240.384766,4255.641113,4207.820313,4225.769043,4222.820313,4230.128418,4203.461426,4212.948730,4232.307617,4257.179688,4209.230957,4427.436035,4224.743652,2119.000000,3.000000,,,,0.000000,4.000000,4.000000,4.000000,4.000000,4.000000,4.000000,2.000000,4.000000,4.000000,4.000000,4.000000,4.000000,4.000000,4.000000,83.333336,23.133467,1.625657,2.274161,0.817386,0.772747,4.350090,0.913574,1.208631,0.488634,0.282642,0.961530,0.116870,0.166777,0.105958,0.117632,2.060050,0.239161,0.600125,0.362394,0.238044,1.586826,0.306461,0.703298,0.328631,0.258759,0.539171,0.144526,0.260452,0.351009,0.254629,0.414281,0.139140,0.168103,0.156516,0.142988,0.660407,0.441364,0.141686,0.379157,0.290428,1.481534,0.802293,0.370823,0.665868,0.456298,3.554544,0.770639,0.812142,1.238194,1.193794,3.567730,0.857858,1.190963,0.786163,0.919294,2.522731,0.657601,0.350370,0.112689,0.328962,1.521159,0.385136,0.288800,0.307456,0.247036,4.995156,1.014881,0.591301,0.224486,0.493221
1605179098.361284,90.000000,0.000000,4300.897461,4243.077148,4256.922852,4209.102539,4230.769043,4230.897461,4236.282227,4208.205078,4220.128418,4244.102539,4271.922852,4212.820313,4433.846191,4230.769043,2407.000000,3.000000,,,,0.000000,4.000000,4.000000,4.000000,4.000000,4.000000,4.000000,2.000000,4.000000,4.000000,4.000000,4.000000,4.000000,4.000000,4.000000,83.333336,,,,,,,,,,,,,,,,,,,,,,,,,,,,,,,,,,,,,,,,,,,,,,,,,,,,,,,,,,,,,,,,,,,,,,
1605179098.369268,91.000000,0.000000,4302.051270,4241.025879,4251.153809,4211.025879,4229.358887,4233.461426,4236.666504,4210.384766,4224.230957,4235.384766,4265.384766,4212.820313,4428.077148,4228.589844,2753.000000,3.000000,,,,0.000000,4.000000,4.000000,4.000000,4.000000,4.000000,4.000000,2.000000,4.000000,4.000000,4.000000,4.000000,4.000000,4.000000,4.000000,83.333336,,,,,,,,,,,,,,,,,,,,,,,,,,,,,,,,,,,,,,,,,,,,,,,,,,,,,,,,,,,,,,,,,,,,,,
1605179098.377151,92.000000,0.000000,4288.333496,4238.589844,4249.487305,4208.589844,4220.641113,4228.205078,4232.436035,4202.179688,4211.922852,4220.641113,4244.358887,4204.358887,4417.436035,4214.871582,4233.000000,3.000000,,,,0.000000,4.000000,4.000000,4.000000,4.000000,4.000000,4.000000,2.000000,4.000000,4.000000,4.000000,4.000000,4.000000,4.000000,4.000000,83.333336,,,,,,,,,,,,,,,,,,,,,,,,,,,,,,,,,,,,,,,,,,,,,,,,,,,,,,,,,,,,,,,,,,,,,,
1605179098.385134,93.000000,0.000000,4283.077148,4243.589844,4255.641113,4207.692383,4221.922852,4231.410156,4237.692383,4204.230957,4214.358887,4227.051270,4245.384766,4203.205078,4417.051270,4211.794922,2119.000000,3.000000,,,,0.000000,4.000000,4.000000,4.000000,4.000000,4.000000,4.000000,2.000000,4.000000,4.000000,4.000000,4.000000,4.000000,4.000000,4.000000,83.333336,,,,,,,,,,,,,,,,,,,,,,,,,,,,,,,,,,,,,,,,,,,,,,,,,,,,,,,,,,,,,,,,,,,,,,
1605179098.393017,94.000000,0.000000,4294.358887,4242.820313,4252.820313,4206.794922,4230.512695,4233.589844,4240.000000,4209.487305,4222.563965,4228.333496,4251.922852,4208.974121,4415.384766,4217.179688,2407.000000,3.000000,,,,0.000000,4.000000,4.000000,4.000000,4.000000,4.000000,4.000000,2.000000,4.000000,4.000000,4.000000,4.000000,4.000000,4.000000,4.000000,83.333336,,,,,,,,,,,,,,,,,,,,,,,,,,,,,,,,,,,,,,,,,,,,,,,,,,,,,,,,,,,,,,,,,,,,,,
1605179098.401001,95.000000,0.000000,4311.282227,4247.948730,4249.871582,4211.538574,4243.461426,4232.436035,4236.538574,4209.102539,4222.436035,4228.846191,4258.461426,4209.743652,4418.077148,4220.897461,2753.000000,3.000000,,,,0.000000,4.000000,4.000000,4.000000,4.000000,4.000000,4.000000,2.000000,4.000000,4.000000,4.000000,4.000000,4.000000,4.000000,4.000000,83.333336,,,,,,,,,,,,,,,,,,,,,,,,,,,,,,,,,,,,,,,,,,,,,,,,,,,,,,,,,,,,,,,,,,,,,,
1605179098.408884,96.000000,0.000000,4311.025879,4257.820313,4251.922852,4216.922852,4243.205078,4234.615234,4237.563965,4210.128418,4222.436035,4238.589844,4266.153809,4209.487305,4422.436035,4224.230957,4233.000000,3.000000,,,,0.000000,4.000000,4.000000,4.000000,4.000000,4.000000,4.000000,2.000000,4.000000,4.000000,4.000000,4.000000,4.000000,4.000000,4.000000,83.333336,,,,,,,,,,,,,,,,,,,,,,,,,,,,,,,,,,,,,,,,,,,,,,,,,,,,,,,,,,,,,,,,,,,,,,
1605179098.416867,97.000000,0.000000,4293.461426,4251.538574,4247.436035,4211.666504,4224.102539,4236.410156,4241.922852,4207.692383,4218.205078,4228.717773,4256.922852,4211.153809,4415.769043,4224.102539,2119.000000,3.000000,,,,0.000000,4.000000,4.000000,4.000000,4.000000,4.000000,4.000000,2.000000,4.000000,4.000000,4.000000,4.000000,4.000000,4.000000,4.000000,83.333336,,,,,,,,,,,,,,,,,,,,,,,,,,,,,,,,,,,,,,,,,,,,,,,,,,,,,,,,,,,,,,,,,,,,,,
1605179098.424750,98.000000,0.000000,4281.538574,4243.077148,4245.641113,4203.333496,4215.256348,4230.128418,4240.384766,4203.461426,4214.615234,4213.589844,4245.128418,4206.153809,4409.487305,4215.000000,2407.000000,3.000000,,,,0.000000,4.000000,4.000000,4.000000,4.000000,4.000000,4.000000,2.000000,4.000000,4.000000,4.000000,4.000000,4.000000,4.000000,4.000000,83.333336,,,,,,,,,,,,,,,,,,,,,,,,,,,,,,,,,,,,,,,,,,,,,,,,,,,,,,,,,,,,,,,,,,,,,,
1605179098.432733,99.000000,0.000000,4293.846191,4246.025879,4253.461426,4205.128418,4228.846191,4223.717773,4234.743652,4207.563965,4218.974121,4223.461426,4249.102539,4206.410156,4409.230957,4215.512695,2753.000000,3.000000,,,,0.000000,4.000000,4.000000,4.000000,4.000000,4.000000,4.000000,2.000000,4.000000,4.000000,4.000000,4.000000,4.000000,4.000000,4.000000,83.333336,,,,,,,,,,,,,,,,,,,,,,,,,,,,,,,,,,,,,,,,,,,,,,,,,,,,,,,,,,,,,,,,,,,,,,
1605179098.440616,100.000000,0.000000,4308.589844,4247.436035,4260.000000,4211.538574,4236.025879,4224.230957,4231.794922,4207.563965,4217.948730,4229.358887,4253.846191,4214.358887,4402.692383,4227.692383,4233.000000,3.000000,,,,0.000000,4.000000,4.000000,4.000000,4.000000,4.000000,4.000000,2.000000,4.000000,4.000000,4.000000,4.000000,4.000000,4.000000,4.000000,83.333336,,,,,,,,,,,,,,,,,,,,,,,,,,,,,,,,,,,,,,,,,,,,,,,,,,,,,,,,,,,,,,,,,,,,,,
1605179098.448599,101.000000,0.000000,4295.897461,4240.256348,4260.000000,4207.948730,4222.436035,4225.256348,4234.102539,4197.307617,4204.743652,4214.743652,4241.538574,4210.128418,4392.307617,4221.153809,2119.000000,3.000000,,,,0.000000,4.000000,4.000000,4.000000,4.000000,4.000000,4.000000,2.000000,4.000000,4.000000,4.000000,4.000000,4.000000,4.000000,4.000000,83.333336,,,,,,,,,,,,,,,,,,,,,,,,,,,,,,,,,,,,,,,,,,,,,,,,,,,,,,,,,,,,,,,,,,,,,,
1605179098.456482,102.000000,0.000000,4292.692383,4244.230957,4265.769043,4208.205078,4218.589844,4227.820313,4238.846191,4200.256348,4206.538574,4220.384766,4249.615234,4206.153809,4400.641113,4213.974121,2407.000000,3.000000,,,,0.000000,4.000000,4.000000,4.000000,4.000000,4.000000,4.000000,2.000000,4.000000,4.000000,4.000000,4.000000,4.000000,4.000000,4.000000,83.333336,,,,,,,,,,,,,,,,,,,,,,,,,,,,,,,,,,,,,,,,,,,,,,,,,,,,,,,,,,,,,,,,,,,,,,
1605179098.464265,103.000000,0.000000,4300.128418,4250.256348,4268.974121,4217.820313,4225.384766,4230.128418,4237.436035,4208.717773,4216.410156,4231.153809,4269.871582,4213.717773,4412.179688,4226.025879,2753.000000,3.000000,,,,0.000000,4.000000,4.000000,4.000000,4.000000,4.000000,4.000000,2.000000,4.000000,4.000000,4.000000,4.000000,4.000000,4.000000,4.000000,83.333336,,,,,,,,,,,,,,,,,,,,,,,,,,,,,,,,,,,,,,,,,,,,,,,,,,,,,,,,,,,,,,,,,,,,,,
1605179098.472148,104.000000,0.000000,4284.743652,4243.717773,4261.538574,4221.794922,4228.589844,4230.256348,4236.282227,4205.128418,4217.307617,4226.410156,4264.871582,4214.743652,4406.410156,4230.128418,4233.000000,3.000000,,,,0.000000,4.000000,4.000000,4.000000,4.000000,4.000000,4.000000,2.000000,4.000000,4.000000,4.000000,4.000000,4.000000,4.000000,4.000000,83.333336,,,,,,,,,,,,,,,,,,,,,,,,,,,,,,,,,,,,,,,,,,,,,,,,,,,,,,,,,,,,,,,,,,,,,,
1605179098.479931,105.000000,0.000000,4271.282227,4228.589844,4255.128418,4208.589844,4222.307617,4227.307617,4236.922852,4197.179688,4208.717773,4208.461426,4236.922852,4203.205078,4390.897461,4213.205078,2119.000000,3.000000,,,,0.000000,4.000000,4.000000,4.000000,4.000000,4.000000,4.000000,2.000000,4.000000,4.000000,4.000000,4.000000,4.000000,4.000000,4.000000,83.333336,23.144375,1.861506,2.404534,0.902408,0.798427,4.345540,1.252238,1.202644,0.539626,0.296449,0.854987,0.084608,0.156655,0.109515,0.117278,1.918486,0.299345,0.609824,0.382847,0.243215,1.527157,0.436486,0.697747,0.394283,0.268056,0.547294,0.146344,0.241786,0.401451,0.260129,0.443711,0.157777,0.156805,0.158554,0.139037,0.821646,0.428475,0.163520,0.427155,0.299624,1.882754,0.754527,0.441773,0.759967,0.467792,3.583992,0.727155,0.963162,1.282317,1.168705,3.578002,0.786074,1.258550,0.804814,0.909391,2.312462,0.599714,0.369196,0.115049,0.320631,1.634742,0.395012,0.313943,0.328023,0.236636,4.683183,0.913116,0.641796,0.235236,0.498706
1605179098.487814,106.000000,0.000000,4301.922852,4230.000000,4254.487305,4204.102539,4223.717773,4227.820313,4234.487305,4198.846191,4209.615234,4200.128418,4228.846191,4199.102539,4389.743652,4207.436035,2407.000000,3.000000,,,,0.000000,4.000000,4.000000,4.000000,4.000000,4.000000,4.000000,2.000000,4.000000,4.000000,4.000000,4.000000,4.000000,4.000000,4.000000,83.333336,,,,,,,,,,,,,,,,,,,,,,,,,,,,,,,,,,,,,,,,,,,,,,,,,,,,,,,,,,,,,,,,,,,,,,
1605179098.495597,107.000000,0.000000,4318.846191,4243.077148,4255.512695,4216.410156,4234.615234,4228.077148,4232.692383,4207.820313,4222.948730,4218.077148,4244.102539,4205.897461,4395.897461,4219.871582,2753.000000,3.000000,,,,0.000000,4.000000,4.000000,4.000000,4.000000,4.000000,4.000000,2.000000,4.000000,4.000000,4.000000,4.000000,4.000000,4.000000,4.000000,83.333336,,,,,,,,,,,,,,,,,,,,,,,,,,,,,,,,,,,,,,,,,,,,,,,,,,,,,,,,,,,,,,,,,,,,,,
1605179098.503480,108.000000,0.000000,4305.769043,4255.000000,4257.692383,4230.384766,4244.871582,4236.153809,4237.948730,4216.282227,4234.230957,4252.051270,4273.717773,4221.025879,4404.871582,4242.563965,4233.000000,3.000000,,,,0.000000,4.000000,4.000000,4.000000,4.000000,4.000000,4.000000,2.000000,4.000000,4.000000,4.000000,4.000000,4.000000,4.000000,4.000000,83.333336,,,,,,,,,,,,,,,,,,,,,,,,,,,,,,,,,,,,,,,,,,,,,,,,,,,,,,,,,,,,,,,,,,,,,,
1605179098.511263,109.000000,0.000000,4316.153809,4262.563965,4265.384766,4234.230957,4245.128418,4244.615234,4245.128418,4216.922852,4234.487305,4260.769043,4298.846191,4230.897461,4417.051270,4250.769043,2119.000000,3.000000,,,,0.000000,4.000000,4.000000,4.000000,4.000000,4.000000,4.000000,2.000000,4.000000,4.000000,4.000000,4.000000,4.000000,4.000000,4.000000,83.333336,,,,,,,,,,,,,,,,,,,,,,,,,,,,,,,,,,,,,,,,,,,,,,,,,,,,,,,,,,,,,,,,,,,,,,
1605179098.519146,110.000000,0.000000,4342.692383,4275.641113,4268.974121,4239.615234,4255.000000,4249.102539,4250.256348,4221.794922,4240.769043,4255.512695,4309.615234,4228.077148,4424.615234,4242.948730,2407.000000,3.000000,,,,0.000000,4.000000,4.000000,4.000000,4.000000,4.000000,4.000000,2.000000,4.000000,4.000000,4.000000,4.000000,4.000000,4.000000,4.000000,83.333336,,,,,,,,,,,,,,,,,,,,,,,,,,,,,,,,,,,,,,,,,,,,,,,,,,,,,,,,,,,,,,,,,,,,,,
1605179098.526928,111.000000,0.000000,4335.769043,4273.077148,4262.948730,4236.153809,4253.717773,4242.051270,4243.333496,4218.205078,4235.256348,4254.487305,4295.000000,4215.897461,4414.358887,4230.512695,2753.000000,3.000000,,,,0.000000,4.000000,4.000000,4.000000,4.000000,4.000000,4.000000,2.000000,4.000000,4.000000,4.000000,4.000000,4.000000,4.000000,4.000000,83.333336,,,,,,,,,,,,,,,,,,,,,,,,,,,,,,,,,,,,,,,,,,,,,,,,,,,,,,,,,,,,,,,,,,,,,,
1605179098.534811,112.000000,0.000000,4319.615234,4260.000000,4257.307617,4229.487305,4240.512695,4232.436035,4235.641113,4210.000000,4221.666504,4248.461426,4274.871582,4213.205078,4405.512695,4228.846191,4233.000000,3.000000,,,,0.000000,4.000000,4.000000,4.000000,4.000000,4.000000,4.000000,2.000000,4.000000,4.000000,4.000000,4.000000,4.000000,4.000000,4.000000,83.333336,,,,,,,,,,,,,,,,,,,,,,,,,,,,,,,,,,,,,,,,,,,,,,,,,,,,,,,,,,,,,,,,,,,,,,
1605179098.542594,113.000000,0.000000,4329.743652,4261.025879,4256.794922,4231.922852,4243.589844,4235.897461,4242.307617,4218.333496,4229.615234,4243.077148,4280.512695,4223.717773,4411.282227,4240.897461,2119.000000,3.000000,,,,0.000000,4.000000,4.000000,4.000000,4.000000,4.000000,4.000000,2.000000,4.000000,4.000000,4.000000,4.000000,4.000000,4.000000,4.000000,83.333336,,,,,,,,,,,,,,,,,,,,,,,,,,,,,,,,,,,,,,,,,,,,,,,,,,,,,,,,,,,,,,,,,,,,,,
1605179098.550476,114.000000,0.000000,4332.820313,4273.205078,4256.666504,4238.717773,4253.461426,4246.410156,4248.461426,4223.333496,4240.000000,4253.077148,4304.358887,4232.948730,4420.128418,4251.153809,2407.000000,3.000000,,,,0.000000,4.000000,4.000000,4.000000,4.000000,4.000000,4.000000,2.000000,4.000000,4.000000,4.000000,4.000000,4.000000,4.000000,4.000000,83.333336,,,,,,,,,,,,,,,,,,,,,,,,,,,,,,,,,,,,,,,,,,,,,,,,,,,,,,,,,,,,,,,,,,,,,,
1605179098.558259,115.000000,0.000000,4322.563965,4273.717773,4255.000000,4238.077148,4249.230957,4245.000000,4243.205078,4210.641113,4226.794922,4251.153809,4307.948730,4232.563965,4418.205078,4246.794922,2753.000000,3.000000,,,,0.000000,4.000000,4.000000,4.000000,4.000000,4.000000,4.000000,2.000000,4.000000,4.000000,4.000000,4.000000,4.000000,4.000000,4.000000,83.333336,,,,,,,,,,,,,,,,,,,,,,,,,,,,,,,,,,,,,,,,,,,,,,,,,,,,,,,,,,,,,,,,,,,,,,
1605179098.566141,116.000000,0.000000,4325.512695,4269.358887,4253.461426,4233.333496,4241.410156,4241.282227,4243.461426,4207.948730,4220.641113,4238.589844,4294.230957,4228.589844,4409.615234,4242.563965,4233.000000,3.000000,,,,0.000000,4.000000,4.000000,4.000000,4.000000,4.000000,4.000000,2.000000,4.000000,4.000000,4.000000,4.000000,4.000000,4.000000,4.000000,83.333336,,,,,,,,,,,,,,,,,,,,,,,,,,,,,,,,,,,,,,,,,,,,,,,,,,,,,,,,,,,,,,,,,,,,,,
1605179098.573924,117.000000,0.000000,4327.948730,4270.641113,4256.282227,4230.256348,4237.563965,4242.692383,4245.128418,4216.282227,4228.589844,4246.153809,4292.820313,4227.051270,4405.128418,4242.948730,2119.000000,3.000000,,,,0.000000,4.000000,4.000000,4.000000,4.000000,4.000000,4.000000,2.000000,4.000000,4.000000,4.000000,4.000000,4.000000,4.000000,4.000000,83.333336,,,,,,,,,,,,,,,,,,,,,,,,,,,,,,,,,,,,,,,,,,,,,,,,,,,,,,,,,,,,,,,,,,,,,,
1605179098.581806,118.000000,0.000000,4336.922852,4271.794922,4259.102539,4230.769043,4241.153809,4239.615234,4238.974121,4212.307617,4225.641113,4253.077148,4294.615234,4225.641113,4404.743652,4238.077148,2407.000000,3.000000,,,,0.000000,4.000000,4.000000,4.000000,4.000000,4.000000,4.000000,2.000000,4.000000,4.000000,4.000000,4.000000,4.000000,4.000000,4.000000,83.333336,,,,,,,,,,,,,,,,,,,,,,,,,,,,,,,,,,,,,,,,,,,,,,,,,,,,,,,,,,,,,,,,,,,,,,
1605179098.589589,119.000000,0.000000,4352.436035,4273.205078,4260.000000,4237.179688,4253.461426,4238.077148,4238.077148,4208.589844,4220.256348,4249.487305,4291.794922,4227.051270,4404.615234,4238.333496,2753.000000,3.000000,,,,0.000000,4.000000,4.000000,4.000000,4.000000,4.000000,4.000000,2.000000,4.000000,4.000000,4.000000,4.000000,4.000000,4.000000,4.000000,83.333336,,,,,,,,,,,,,,,,,,,,,,,,,,,,,,,,,,,,,,,,,,,,,,,,,,,,,,,,,,,,,,,,,,,,,,
1605179098.597572,120.000000,0.000000,4333.461426,4267.436035,4257.436035,4235.641113,4249.871582,4237.307617,4238.589844,4207.436035,4214.871582,4242.051270,4278.974121,4221.922852,4396.666504,4232.692383,4233.000000,3.000000,,,,0.000000,4.000000,4.000000,4.000000,4.000000,4.000000,4.000000,2.000000,4.000000,4.000000,4.000000,4.000000,4.000000,4.000000,4.000000,83.333336,,,,,,,,,,,,,,,,,,,,,,,,,,,,,,,,,,,,,,,,,,,,,,,,,,,,,,,,,,,,,,,,,,,,,,
1605179098.605455,121.000000,0.000000,4307.692383,4261.025879,4255.256348,4228.589844,4236.282227,4232.948730,4239.743652,4205.000000,4212.820313,4239.102539,4261.922852,4212.563965,4387.179688,4216.666504,2119.000000,3.000000,,,,0.000000,4.000000,4.000000,4.000000,4.000000,4.000000,4.000000,2.000000,4.000000,4.000000,4.000000,4.000000,4.000000,4.000000,4.000000,83.333336,20.034813,1.973761,2.253882,1.021702,0.792205,4.053751,1.711021,1.180973,0.567677,0.310121,0.704534,0.076879,0.142503,0.112195,0.112413,1.659964,0.428812,0.600382,0.389024,0.244030,1.362397,0.657726,0.679124,0.443987,0.275464,0.520787,0.149172,0.230017,0.442149,0.256408,0.458678,0.170493,0.150344,0.157669,0.128991,1.044095,0.438285,0.197689,0.464208,0.297244,2.429191,0.787663,0.536661,0.812218,0.460682,3.769653,0.806030,1.106702,1.367871,1.102888,4.108647,0.843974,1.278559,0.838171,0.870377,2.054243,0.527833,0.390591,0.121926,0.294564,1.833315,0.471786,0.334194,0.355155,0.224748,4.142744,0.801268,0.696446,0.241813,0.470679
1605179098.613438,122.000000,0.000000,4317.563965,4263.589844,4255.512695,4228.589844,4237.948730,4229.615234,4241.666504,4209.358887,4219.615234,4239.230957,4258.205078,4210.769043,4387.307617,4214.743652,2407.000000,3.000000,,,,0.000000,4.000000,4.000000,4.000000,4.000000,4.000000,4.000000,2.000000,4.000000,4.000000,4.000000,4.000000,4.000000,4.000000,4.000000,83.333336,,,,,,,,,,,,,,,,,,,,,,,,,,,,,,,,,,,,,,,,,,,,,,,,,,,,,,,,,,,,,,,,,,,,,,
1605179098.621321,123.000000,0.000000,4338.589844,4273.333496,4258.846191,4240.641113,4248.333496,4239.743652,4243.589844,4222.820313,4235.256348,4250.384766,4281.282227,4222.179688,4400.128418,4234.487305,2753.000000,3.000000,,,,0.000000,4.000000,4.000000,4.000000,4.000000,4.000000,4.000000,2.000000,4.000000,4.000000,4.000000,4.000000,4.000000,4.000000,4.000000,83.333336,,,,,,,,,,,,,,,,,,,,,,,,,,,,,,,,,,,,,,,,,,,,,,,,,,,,,,,,,,,,,,,,,,,,,,
1605179098.629304,124.000000,0.000000,4348.846191,4272.307617,4259.871582,4243.077148,4242.820313,4247.179688,4246.666504,4225.769043,4240.384766,4252.820313,4295.128418,4227.948730,4400.897461,4238.077148,4233.000000,3.000000,,,,0.000000,4.000000,4.000000,4.000000,4.000000,4.000000,4.000000,2.000000,4.000000,4.000000,4.000000,4.000000,4.000000,4.000000,4.000000,83.333336,,,,,,,,,,,,,,,,,,,,,,,,,,,,,,,,,,,,,,,,,,,,,,,,,,,,,,,,,,,,,,,,,,,,,,
1605179098.637186,125.000000,0.000000,4350.512695,4268.205078,4256.025879,4234.358887,4241.538574,4246.794922,4251.025879,4221.025879,4239.102539,4246.410156,4289.102539,4221.282227,4391.538574,4226.666504,2119.000000,3.000000,,,,0.000000,4.000000,4.000000,4.000000,4.000000,4.000000,4.000000,2.000000,4.000000,4.000000,4.000000,4.000000,4.000000,4.000000,4.000000,83.333336,,,,,,,,,,,,,,,,,,,,,,,,,,,,,,,,,,,,,,,,,,,,,,,,,,,,,,,,,,,,,,,,,,,,,,
1605179098.644969,126.000000,0.000000,4335.384766,4271.153809,4255.128418,4232.051270,4250.769043,4244.230957,4246.538574,4222.436035,4238.461426,4255.512695,4291.410156,4220.256348,4394.615234,4231.410156,2407.000000,3.000000,,,,0.000000,4.000000,4.000000,4.000000,4.000000,4.000000,4.000000,2.000000,4.000000,4.000000,4.000000,4.000000,4.000000,4.000000,4.000000,83.333336,,,,,,,,,,,,,,,,,,,,,,,,,,,,,,,,,,,,,,,,,,,,,,,,,,,,,,,,,,,,,,,,,,,,,,
1605179098.652852,127.000000,0.000000,4341.282227,4285.512695,4262.307617,4245.897461,4260.000000,4249.487305,4245.512695,4229.615234,4244.743652,4278.077148,4314.743652,4234.743652,4411.922852,4251.282227,52.000000,3.000000,,,,0.000000,4.000000,4.000000,4.000000,4.000000,4.000000,4.000000,2.000000,4.000000,4.000000,4.000000,4.000000,4.000000,4.000000,4.000000,83.333336,,,,,,,,,,,,,,,,,,,,,,,,,,,,,,,,,,,,,,,,,,,,,,,,,,,,,,,,,,,,,,,,,,,,,,
1605179098.660635,0.000000,0.000000,4346.794922,4283.717773,4264.102539,4245.384766,4254.871582,4248.974121,4248.846191,4225.641113,4243.461426,4270.000000,4315.256348,4238.461426,4408.077148,4247.563965,1635.000000,3.000000,,,,0.000000,4.000000,4.000000,4.000000,4.000000,4.000000,4.000000,2.000000,4.000000,4.000000,4.000000,4.000000,4.000000,4.000000,4.000000,83.333336,,,,,,,,,,,,,,,,,,,,,,,,,,,,,,,,,,,,,,,,,,,,,,,,,,,,,,,,,,,,,,,,,,,,,,
1605179098.668618,1.000000,0.000000,4327.820313,4270.128418,4255.512695,4234.230957,4246.153809,4243.077148,4245.128418,4221.282227,4238.333496,4248.333496,4294.487305,4225.384766,4391.025879,4230.897461,3226.000000,3.000000,,,,0.000000,4.000000,4.000000,4.000000,4.000000,4.000000,4.000000,2.000000,4.000000,4.000000,4.000000,4.000000,4.000000,4.000000,4.000000,83.333336,,,,,,,,,,,,,,,,,,,,,,,,,,,,,,,,,,,,,,,,,,,,,,,,,,,,,,,,,,,,,,,,,,,,,,
1605179098.676502,2.000000,0.000000,4328.333496,4266.666504,4254.358887,4233.589844,4241.410156,4244.230957,4245.000000,4226.410156,4241.153809,4259.102539,4294.102539,4223.974121,4392.692383,4235.256348,2986.000000,3.000000,,,,0.000000,4.000000,4.000000,4.000000,4.000000,4.000000,4.000000,2.000000,4.000000,4.000000,4.000000,4.000000,4.000000,4.000000,4.000000,83.333336,,,,,,,,,,,,,,,,,,,,,,,,,,,,,,,,,,,,,,,,,,,,,,,,,,,,,,,,,,,,,,,,,,,,,,
1605179098.684485,3.000000,0.000000,4355.641113,4273.717773,4260.769043,4241.282227,4249.102539,4250.256348,4250.384766,4229.743652,4246.538574,4282.820313,4316.025879,4239.102539,4405.256348,4251.666504,3306.000000,3.000000,,,,0.000000,4.000000,4.000000,4.000000,4.000000,4.000000,4.000000,2.000000,4.000000,4.000000,4.000000,4.000000,4.000000,4.000000,4.000000,83.333336,,,,,,,,,,,,,,,,,,,,,,,,,,,,,,,,,,,,,,,,,,,,,,,,,,,,,,,,,,,,,,,,,,,,,,
1605179098.692369,4.000000,0.000000,4348.589844,4270.512695,4259.230957,4238.333496,4253.077148,4245.897461,4247.179688,4225.897461,4242.179688,4277.051270,4312.436035,4235.128418,4398.461426,4244.230957,3499.000000,3.000000,,,,0.000000,4.000000,4.000000,4.000000,4.000000,4.000000,4.000000,2.000000,4.000000,4.000000,4.000000,4.000000,4.000000,4.000000,4.000000,83.333336,,,,,,,,,,,,,,,,,,,,,,,,,,,,,,,,,,,,,,,,,,,,,,,,,,,,,,,,,,,,,,,,,,,,,,
1605179098.700352,5.000000,0.000000,4320.641113,4261.153809,4252.692383,4231.410156,4244.871582,4237.948730,4241.794922,4222.820313,4235.000000,4265.256348,4290.769043,4220.256348,4382.948730,4230.256348,2661.000000,3.000000,,,,0.000000,4.000000,4.000000,4.000000,4.000000,4.000000,4.000000,4.000000,4.000000,4.000000,4.000000,4.000000,4.000000,4.000000,4.000000,100.000000,,,,,,,,,,,,,,,,,,,,,,,,,,,,,,,,,,,,,,,,,,,,,,,,,,,,,,,,,,,,,,,,,,,,,,
1605179098.708236,6.000000,0.000000,4320.897461,4254.615234,4252.307617,4227.948730,4237.051270,4237.820313,4243.205078,4223.589844,4237.563965,4263.589844,4285.256348,4218.717773,4377.179688,4227.563965,1667.000000,3.000000,,,,0.000000,4.000000,4.000000,4.000000,4.000000,4.000000,4.000000,4.000000,4.000000,4.000000,4.000000,4.000000,4.000000,4.000000,4.000000,100.000000,,,,,,,,,,,,,,,,,,,,,,,,,,,,,,,,,,,,,,,,,,,,,,,,,,,,,,,,,,,,,,,,,,,,,,
1605179098.716219,7.000000,0.000000,4329.358887,4254.102539,4252.179688,4225.256348,4236.153809,4242.436035,4246.666504,4225.000000,4244.871582,4257.307617,4281.538574,4219.358887,4371.282227,4224.487305,2007.000000,3.000000,,,,0.000000,4.000000,4.000000,4.000000,4.000000,4.000000,4.000000,4.000000,4.000000,4.000000,4.000000,4.000000,4.000000,4.000000,4.000000,100.000000,,,,,,,,,,,,,,,,,,,,,,,,,,,,,,,,,,,,,,,,,,,,,,,,,,,,,,,,,,,,,,,,,,,,,,
1605179098.724102,8.000000,0.000000,4311.538574,4251.666504,4251.794922,4222.179688,4235.769043,4237.692383,4244.102539,4216.666504,4233.077148,4236.666504,4262.307617,4208.077148,4358.461426,4209.358887,2936.000000,3.000000,,,,0.000000,4.000000,4.000000,4.000000,4.000000,4.000000,4.000000,4.000000,4.000000,4.000000,4.000000,4.000000,4.000000,4.000000,4.000000,100.000000,,,,,,,,,,,,,,,,,,,,,,,,,,,,,,,,,,,,,,,,,,,,,,,,,,,,,,,,,,,,,,,,,,,,,,
1605179098.732085,9.000000,0.000000,4300.128418,4245.897461,4252.692383,4221.153809,4234.487305,4229.615234,4237.436035,4203.205078,4209.615234,4221.922852,4245.128418,4200.897461,4351.794922,4200.000000,3469.000000,3.000000,,,,0.000000,4.000000,4.000000,4.000000,4.000000,4.000000,4.000000,4.000000,4.000000,4.000000,4.000000,4.000000,4.000000,4.000000,4.000000,100.000000,15.229655,1.917689,1.874452,1.135430,0.762698,3.661105,2.211778,1.161848,0.558503,0.319385,0.559140,0.088100,0.126879,0.113670,0.106268,1.391555,0.608153,0.574657,0.372627,0.240701,1.200376,0.943148,0.662242,0.461636,0.280800,0.488932,0.158506,0.226754,0.460494,0.243854,0.472481,0.175055,0.149645,0.154701,0.115780,1.318870,0.486636,0.241329,0.482849,0.283699,3.051391,0.921624,0.647847,0.815032,0.438935,4.217169,1.060773,1.189095,1.467795,1.016106,5.256001,1.134258,1.246230,0.884727,0.810479,1.845639,0.462649,0.404711,0.135005,0.258281,2.230819,0.641445,0.337562,0.386001,0.210523,3.601821,0.714406,0.736493,0.252139,0.420130
1605179098.739968,10.000000,0.000000,4321.794922,4250.128418,4253.846191,4225.384766,4237.563965,4231.922852,4233.717773,4203.333496,4206.922852,4235.128418,4252.307617,4207.948730,4354.102539,4212.820313,2408.000000,3.000000,,,,0.000000,4.000000,4.000000,4.000000,4.000000,4.000000,4.000000,4.000000,4.000000,4.000000,4.000000,4.000000,4.000000,4.000000,4.000000,100.000000,,,,,,,,,,,,,,,,,,,,,,,,,,,,,,,,,,,,,,,,,,,,,,,,,,,,,,,,,,,,,,,,,,,,,,
1605179098.747951,11.000000,0.000000,4326.666504,4252.820313,4253.589844,4223.205078,4233.461426,4234.743652,4235.384766,4208.589844,4218.205078,4241.025879,4256.282227,4211.922852,4351.282227,4220.000000,2765.000000,3.000000,,,,0.000000,4.000000,4.000000,4.000000,4.000000,4.000000,4.000000,4.000000,4.000000,4.000000,4.000000,4.000000,4.000000,4.000000,4.000000,100.000000,,,,,,,,,,,,,,,,,,,,,,,,,,,,,,,,,,,,,,,,,,,,,,,,,,,,,,,,,,,,,,,,,,,,,,
1605179098.755834,12.000000,0.000000,4312.563965,4250.512695,4254.871582,4218.846191,4229.102539,4233.461426,4239.230957,4210.000000,4222.692383,4232.948730,4251.025879,4208.846191,4348.589844,4212.179688,4249.000000,3.000000,,,,0.000000,4.000000,4.000000,4.000000,4.000000,4.000000,4.000000,4.000000,4.000000,4.000000,4.000000,4.000000,4.000000,4.000000,4.000000,100.000000,,,,,,,,,,,,,,,,,,,,,,,,,,,,,,,,,,,,,,,,,,,,,,,,,,,,,,,,,,,,,,,,,,,,,,
1605179098.763817,13.000000,0.000000,4322.563965,4257.820313,4259.871582,4225.512695,4235.384766,4235.256348,4242.948730,4213.077148,4224.230957,4243.974121,4255.128418,4210.000000,4351.666504,4211.025879,2124.000000,3.000000,,,,0.000000,4.000000,4.000000,4.000000,4.000000,4.000000,4.000000,4.000000,4.000000,4.000000,4.000000,4.000000,4.000000,4.000000,4.000000,100.000000,,,,,,,,,,,,,,,,,,,,,,,,,,,,,,,,,,,,,,,,,,,,,,,,,,,,,,,,,,,,,,,,,,,,,,
1605179098.771700,14.000000,0.000000,4339.743652,4270.769043,4268.846191,4237.307617,4243.974121,4240.128418,4245.641113,4216.794922,4231.025879,4261.922852,4270.384766,4222.563965,4350.641113,4225.384766,2408.000000,3.000000,,,,0.000000,4.000000,4.000000,4.000000,4.000000,4.000000,4.000000,4.000000,4.000000,4.000000,4.000000,4.000000,4.000000,4.000000,4.000000,100.000000,,,,,,,,,,,,,,,,,,,,,,,,,,,,,,,,,,,,,,,,,,,,,,,,,,,,,,,,,,,,,,,,,,,,,,
1605179098.779483,15.000000,0.000000,4304.615234,4246.922852,4271.410156,4218.589844,4220.769043,4222.948730,4234.487305,4202.436035,4212.051270,4223.974121,4245.384766,4214.487305,4325.128418,4213.974121,2765.000000,3.000000,,,,0.000000,4.000000,4.000000,4.000000,4.000000,4.000000,4.000000,4.000000,4.000000,4.000000,4.000000,4.000000,4.000000,4.000000,4.000000,100.000000,,,,,,,,,,,,,,,,,,,,,,,,,,,,,,,,,,,,,,,,,,,,,,,,,,,,,,,,,,,,,,,,,,,,,,
1605179098.787366,16.000000,0.000000,4266.282227,4219.358887,4266.538574,4194.743652,4199.230957,4209.102539,4226.538574,4189.743652,4191.922852,4180.769043,4205.256348,4193.077148,4303.461426,4189.615234,0.000000,3.000000,,,,0.000000,4.000000,4.000000,4.000000,4.000000,4.000000,4.000000,4.000000,4.000000,4.000000,4.000000,4.000000,4.000000,4.000000,4.000000,100.000000,,,,,,,,,,,,,,,,,,,,,,,,,,,,,,,,,,,,,,,,,,,,,,,,,,,,,,,,,,,,,,,,,,,,,,
1605179098.795149,17.000000,0.000000,4283.589844,4221.153809,4262.563965,4197.051270,4209.487305,4221.025879,4233.846191,4193.846191,4198.333496,4196.153809,4206.410156,4191.666504,4307.051270,4185.384766,0.000000,3.000000,,,,0.000000,4.000000,4.000000,4.000000,4.000000,4.000000,4.000000,4.000000,4.000000,4.000000,4.000000,4.000000,4.000000,4.000000,4.000000,100.000000,,,,,,,,,,,,,,,,,,,,,,,,,,,,,,,,,,,,,,,,,,,,,,,,,,,,,,,,,,,,,,,,,,,,,,
1605179098.803032,18.000000,0.000000,4308.461426,4225.384766,4256.922852,4205.384766,4216.666504,4227.820313,4238.333496,4196.922852,4203.589844,4221.922852,4220.000000,4197.948730,4312.179688,4190.128418,0.000000,3.000000,,,,0.000000,4.000000,4.000000,4.000000,4.000000,4.000000,4.000000,4.000000,4.000000,4.000000,4.000000,4.000000,4.000000,4.000000,4.000000,100.000000,,,,,,,,,,,,,,,,,,,,,,,,,,,,,,,,,,,,,,,,,,,,,,,,,,,,,,,,,,,,,,,,,,,,,,
1605179098.810815,19.000000,0.000000,4291.922852,4215.384766,4251.153809,4192.820313,4198.461426,4208.461426,4224.615234,4191.153809,4191.922852,4201.666504,4198.077148,4187.692383,4295.000000,4179.743652,0.000000,3.000000,,,,0.000000,4.000000,4.000000,4.000000,4.000000,4.000000,4.000000,4.000000,4.000000,4.000000,4.000000,4.000000,4.000000,4.000000,4.000000,100.000000,,,,,,,,,,,,,,,,,,,,,,,,,,,,,,,,,,,,,,,,,,,,,,,,,,,,,,,,,,,,,,,,,,,,,,
1605179098.818698,20.000000,0.000000,4280.384766,4211.025879,4251.666504,4178.846191,4189.358887,4198.717773,4213.717773,4185.128418,4185.384766,4168.846191,4169.487305,4176.794922,4277.692383,4163.461426,0.000000,3.000000,,,,0.000000,4.000000,4.000000,4.000000,4.000000,4.000000,4.000000,4.000000,4.000000,4.000000,4.000000,4.000000,4.000000,4.000000,4.000000,100.000000,,,,,,,,,,,,,,,,,,,,,,,,,,,,,,,,,,,,,,,,,,,,,,,,,,,,,,,,,,,,,,,,,,,,,,
1605179098.826480,21.000000,0.000000,4286.025879,4199.230957,4253.461426,4169.615234,4188.461426,4204.230957,4217.436035,4172.692383,4171.922852,4157.948730,4152.307617,4170.128418,4265.897461,4151.794922,0.000000,3.000000,,,,0.000000,4.000000,4.000000,4.000000,4.000000,4.000000,4.000000,4.000000,4.000000,4.000000,4.000000,4.000000,4.000000,4.000000,4.000000,100.000000,,,,,,,,,,,,,,,,,,,,,,,,,,,,,,,,,,,,,,,,,,,,,,,,,,,,,,,,,,,,,,,,,,,,,,
1605179098.834363,22.000000,0.000000,4275.512695,4186.922852,4251.153809,4166.153809,4178.846191,4201.666504,4218.846191,4164.615234,4157.051270,4160.897461,4147.563965,4165.000000,4259.102539,4148.333496,0.000000,3.000000,,,,0.000000,4.000000,4.000000,4.000000,4.000000,4.000000,4.000000,4.000000,4.000000,4.000000,4.000000,4.000000,4.000000,4.000000,4.000000,100.000000,,,,,,,,,,,,,,,,,,,,,,,,,,,,,,,,,,,,,,,,,,,,,,,,,,,,,,,,,,,,,,,,,,,,,,
1605179098.842145,23.000000,0.000000,4267.948730,4194.358887,4251.025879,4169.615234,4165.641113,4191.282227,4214.358887,4169.102539,4163.461426,4158.717773,4153.974121,4170.128418,4260.384766,4151.666504,0.000000,3.000000,,,,0.000000,4.000000,4.000000,4.000000,4.000000,4.000000,4.000000,4.000000,4.000000,4.000000,4.000000,4.000000,4.000000,4.000000,4.000000,100.000000,,,,,,,,,,,,,,,,,,,,,,,,,,,,,,,,,,,,,,,,,,,,,,,,,,,,,,,,,,,,,,,,,,,,,,
1605179098.850028,24.000000,0.000000,4288.846191,4205.128418,4254.230957,4173.717773,4164.358887,4187.948730,4213.589844,4171.410156,4170.128418,4150.384766,4157.307617,4177.820313,4260.512695,4156.538574,0.000000,3.000000,,,,0.000000,4.000000,4.000000,4.000000,4.000000,4.000000,4.000000,4.000000,4.000000,4.000000,4.000000,4.000000,4.000000,4.000000,4.000000,100.000000,,,,,,,,,,,,,,,,,,,,,,,,,,,,,,,,,,,,,,,,,,,,,,,,,,,,,,,,,,,,,,,,,,,,,,
1605179098.857811,25.000000,0.000000,4295.000000,4198.974121,4253.846191,4170.641113,4161.153809,4184.358887,4210.641113,4165.512695,4160.000000,4143.461426,4149.230957,4172.692383,4252.307617,4152.051270,0.000000,3.000000,,,,0.000000,4.000000,4.000000,4.000000,4.000000,4.000000,4.000000,4.000000,4.000000,4.000000,4.000000,4.000000,4.000000,4.000000,4.000000,100.000000,10.015179,1.752883,1.394236,1.213901,0.734415,3.341645,2.634286,1.140802,0.517346,0.321073,0.454496,0.117169,0.119642,0.114530,0.101752,1.191651,0.797897,0.532825,0.338835,0.234734,1.082991,1.245044,0.653202,0.445318,0.287940,0.465548,0.183049,0.232020,0.450946,0.224293,0.469205,0.175502,0.153209,0.151361,0.103174,1.571151,0.568293,0.288388,0.481513,0.261804,3.585195,1.125825,0.758676,0.776492,0.408959,4.847099,1.460001,1.180672,1.552609,0.929056,6.883328,1.690097,1.181887,0.975029,0.750779,1.798941,0.439006,0.402895,0.159460,0.224200,2.801854,0.886140,0.317471,0.422071,0.197516,3.272062,0.698193,0.743264,0.282639,0.368743
1605179098.865693,26.000000,0.000000,4268.333496,4186.538574,4249.871582,4162.563965,4147.436035,4178.205078,4204.358887,4161.410156,4150.128418,4141.922852,4136.538574,4166.794922,4241.538574,4143.846191,0.000000,3.000000,,,,0.000000,4.000000,4.000000,4.000000,4.000000,4.000000,4.000000,4.000000,4.000000,4.000000,4.000000,4.000000,4.000000,4.000000,4.000000,100.000000,,,,,,,,,,,,,,,,,,,,,,,,,,,,,,,,,,,,,,,,,,,,,,,,,,,,,,,,,,,,,,,,,,,,,,
1605179098.873476,27.000000,0.000000,4247.436035,4180.128418,4249.358887,4156.153809,4146.794922,4174.102539,4201.666504,4160.000000,4146.410156,4135.769043,4122.307617,4168.461426,4232.307617,4143.846191,0.000000,3.000000,,,,0.000000,4.000000,4.000000,4.000000,4.000000,4.000000,4.000000,4.000000,4.000000,4.000000,4.000000,4.000000,4.000000,4.000000,4.000000,100.000000,,,,,,,,,,,,,,,,,,,,,,,,,,,,,,,,,,,,,,,,,,,,,,,,,,,,,,,,,,,,,,,,,,,,,,
1605179098.881359,28.000000,0.000000,4258.846191,4183.461426,4250.256348,4154.487305,4156.282227,4172.051270,4200.641113,4155.384766,4143.205078,4126.666504,4115.769043,4169.358887,4231.153809,4149.487305,0.000000,3.000000,,,,0.000000,4.000000,4.000000,4.000000,4.000000,4.000000,4.000000,4.000000,4.000000,4.000000,4.000000,4.000000,4.000000,4.000000,4.000000,100.000000,,,,,,,,,,,,,,,,,,,,,,,,,,,,,,,,,,,,,,,,,,,,,,,,,,,,,,,,,,,,,,,,,,,,,,
1605179098.889141,29.000000,0.000000,4272.436035,4180.769043,4252.307617,4152.563965,4146.922852,4169.358887,4198.077148,4148.846191,4137.692383,4126.410156,4125.000000,4170.384766,4233.974121,4151.922852,0.000000,3.000000,,,,0.000000,4.000000,4.000000,4.000000,4.000000,4.000000,4.000000,4.000000,4.000000,4.000000,4.000000,4.000000,4.000000,4.000000,4.000000,100.000000,,,,,,,,,,,,,,,,,,,,,,,,,,,,,,,,,,,,,,,,,,,,,,,,,,,,,,,,,,,,,,,,,,,,,,
1605179098.897023,30.000000,0.000000,4253.333496,4165.256348,4254.615234,4141.410156,4124.230957,4163.333496,4193.846191,4144.871582,4130.769043,4117.051270,4120.000000,4172.948730,4225.512695,4150.769043,0.000000,3.000000,,,,0.000000,4.000000,4.000000,4.000000,4.000000,4.000000,4.000000,4.000000,4.000000,4.000000,4.000000,4.000000,4.000000,4.000000,4.000000,100.000000,,,,,,,,,,,,,,,,,,,,,,,,,,,,,,,,,,,,,,,,,,,,,,,,,,,,,,,,,,,,,,,,,,,,,,
1605179098.904806,31.000000,0.000000,4251.538574,4166.922852,4258.205078,4138.589844,4121.282227,4157.692383,4189.871582,4146.153809,4130.256348,4111.538574,4114.615234,4176.922852,4222.307617,4156.666504,0.000000,3.000000,,,,0.000000,4.000000,4.000000,4.000000,4.000000,4.000000,4.000000,4.000000,4.000000,4.000000,4.000000,4.000000,4.000000,4.000000,4.000000,100.000000,,,,,,,,,,,,,,,,,,,,,,,,,,,,,,,,,,,,,,,,,,,,,,,,,,,,,,,,,,,,,,,,,,,,,,
1605179098.912688,32.000000,0.000000,4288.974121,4179.230957,4254.743652,4140.769043,4118.846191,4148.589844,4184.871582,4138.589844,4121.538574,4115.897461,4114.487305,4171.410156,4221.410156,4151.922852,0.000000,3.000000,,,,0.000000,4.000000,4.000000,4.000000,4.000000,4.000000,4.000000,4.000000,4.000000,4.000000,4.000000,4.000000,4.000000,4.000000,4.000000,100.000000,,,,,,,,,,,,,,,,,,,,,,,,,,,,,,,,,,,,,,,,,,,,,,,,,,,,,,,,,,,,,,,,,,,,,,
1605179098.920471,33.000000,0.000000,4300.512695,4183.974121,4244.615234,4138.589844,4113.717773,4143.589844,4182.948730,4126.153809,4104.487305,4106.025879,4093.333252,4160.384766,4199.230957,4136.153809,0.000000,3.000000,,,,0.000000,4.000000,4.000000,4.000000,4.000000,4.000000,4.000000,4.000000,4.000000,4.000000,4.000000,4.000000,4.000000,4.000000,4.000000,100.000000,,,,,,,,,,,,,,,,,,,,,,,,,,,,,,,,,,,,,,,,,,,,,,,,,,,,,,,,,,,,,,,,,,,,,,
1605179098.928454,34.000000,0.000000,4275.512695,4193.846191,4242.948730,4139.102539,4118.077148,4135.769043,4175.000000,4112.692383,4083.974365,4070.128174,4050.512939,4152.563965,4167.436035,4125.128418,0.000000,3.000000,,,,0.000000,4.000000,4.000000,4.000000,4.000000,4.000000,4.000000,4.000000,4.000000,4.000000,4.000000,4.000000,4.000000,4.000000,4.000000,100.000000,,,,,,,,,,,,,,,,,,,,,,,,,,,,,,,,,,,,,,,,,,,,,,,,,,,,,,,,,,,,,,,,,,,,,,
1605179098.936337,35.000000,0.000000,4273.846191,4206.538574,4245.512695,4141.538574,4110.256348,4128.205078,4167.307617,4100.769043,4070.256348,4048.461426,4026.025635,4147.948730,4154.743652,4120.256348,0.000000,3.000000,,,,0.000000,4.000000,4.000000,4.000000,4.000000,4.000000,4.000000,4.000000,4.000000,4.000000,4.000000,4.000000,4.000000,4.000000,4.000000,100.000000,,,,,,,,,,,,,,,,,,,,,,,,,,,,,,,,,,,,,,,,,,,,,,,,,,,,,,,,,,,,,,,,,,,,,,
1605179098.944320,36.000000,0.000000,4278.846191,4190.897461,4238.077148,4124.487305,4080.256348,4119.743652,4162.179688,4088.718018,4054.615479,4026.923096,3993.333252,4130.128418,4131.922852,4094.358887,0.000000,3.000000,,,,0.000000,4.000000,4.000000,4.000000,4.000000,4.000000,4.000000,4.000000,4.000000,4.000000,4.000000,4.000000,4.000000,4.000000,4.000000,100.000000,,,,,,,,,,,,,,,,,,,,,,,,,,,,,,,,,,,,,,,,,,,,,,,,,,,,,,,,,,,,,,,,,,,,,,
1605179098.952202,37.000000,0.000000,4266.410156,4179.871582,4232.436035,4110.384766,4080.512939,4103.333496,4148.461426,4069.230713,4028.974365,3982.820557,3945.769287,4113.333496,4095.641113,4067.948730,0.000000,3.000000,,,,0.000000,4.000000,4.000000,4.000000,4.000000,4.000000,4.000000,4.000000,4.000000,4.000000,4.000000,4.000000,4.000000,4.000000,4.000000,100.000000,,,,,,,,,,,,,,,,,,,,,,,,,,,,,,,,,,,,,,,,,,,,,,,,,,,,,,,,,,,,,,,,,,,,,,
1605179098.959985,38.000000,0.000000,4249.743652,4187.051270,4234.871582,4108.589844,4085.256348,4084.615479,4136.025879,4050.897461,4003.461426,3959.230713,3925.641113,4113.333496,4077.179443,4069.358887,0.000000,3.000000,,,,0.000000,4.000000,4.000000,4.000000,4.000000,4.000000,4.000000,4.000000,4.000000,4.000000,4.000000,4.000000,4.000000,4.000000,4.000000,100.000000,,,,,,,,,,,,,,,,,,,,,,,,,,,,,,,,,,,,,,,,,,,,,,,,,,,,,,,,,,,,,,,,,,,,,,
1605179098.967868,39.000000,0.000000,4237.179688,4185.897461,4231.922852,4107.179688,4049.230713,4086.538574,4143.974121,4061.538574,4015.641113,3977.435791,3928.333252,4110.641113,4073.589844,4069.358887,0.000000,3.000000,,,,0.000000,4.000000,4.000000,4.000000,4.000000,4.000000,4.000000,4.000000,4.000000,4.000000,4.000000,4.000000,4.000000,4.000000,4.000000,100.000000,,,,,,,,,,,,,,,,,,,,,,,,,,,,,,,,,,,,,,,,,,,,,,,,,,,,,,,,,,,,,,,,,,,,,,
1605179098.975651,40.000000,0.000000,4229.871582,4174.102539,4227.436035,4102.820313,4018.461426,4091.153809,4150.897461,4078.718018,4039.102539,3985.641113,3912.435791,4096.922852,4062.692383,4048.461426,0.000000,3.000000,,,,0.000000,4.000000,4.000000,4.000000,4.000000,4.000000,4.000000,4.000000,4.000000,4.000000,4.000000,4.000000,4.000000,4.000000,4.000000,100.000000,,,,,,,,,,,,,,,,,,,,,,,,,,,,,,,,,,,,,,,,,,,,,,,,,,,,,,,,,,,,,,,,,,,,,,
