title:club, start timestamp:1605155868.575203, stop timestamp:1605155936.726874, headset type:EPOCPLUS, headset serial:3B9AEC95, headset firmware:625, channels:108, sampling rate:eeg_128;pow_8, samples:8651      , version:2.0
Timestamp,EEG.Counter,EEG.Interpolated,EEG.AF3,EEG.F7,EEG.F3,EEG.FC5,EEG.T7,EEG.P7,EEG.O1,EEG.O2,EEG.P8,EEG.T8,EEG.FC6,EEG.F4,EEG.F8,EEG.AF4,EEG.RawCq,EEG.Battery,MarkerIndex,MarkerType,MarkerValueInt,EEG.MarkerHardware,CQ.AF3,CQ.F7,CQ.F3,CQ.FC5,CQ.T7,CQ.P7,CQ.O1,CQ.O2,CQ.P8,CQ.T8,CQ.FC6,CQ.F4,CQ.F8,CQ.AF4,CQ.Overall,POW.AF3.Theta,POW.AF3.Alpha,POW.AF3.BetaL,POW.AF3.BetaH,POW.AF3.Gamma,POW.F7.Theta,POW.F7.Alpha,POW.F7.BetaL,POW.F7.BetaH,POW.F7.Gamma,POW.F3.Theta,POW.F3.Alpha,POW.F3.BetaL,POW.F3.BetaH,POW.F3.Gamma,POW.FC5.Theta,POW.FC5.Alpha,POW.FC5.BetaL,POW.FC5.BetaH,POW.FC5.Gamma,POW.T7.Theta,POW.T7.Alpha,POW.T7.BetaL,POW.T7.BetaH,POW.T7.Gamma,POW.P7.Theta,POW.P7.Alpha,POW.P7.BetaL,POW.P7.BetaH,POW.P7.Gamma,POW.O1.Theta,POW.O1.Alpha,POW.O1.BetaL,POW.O1.BetaH,POW.O1.Gamma,POW.O2.Theta,POW.O2.Alpha,POW.O2.BetaL,POW.O2.BetaH,POW.O2.Gamma,POW.P8.Theta,POW.P8.Alpha,POW.P8.BetaL,POW.P8.BetaH,POW.P8.Gamma,POW.T8.Theta,POW.T8.Alpha,POW.T8.BetaL,POW.T8.BetaH,POW.T8.Gamma,POW.FC6.Theta,POW.FC6.Alpha,POW.FC6.BetaL,POW.FC6.BetaH,POW.FC6.Gamma,POW.F4.Theta,POW.F4.Alpha,POW.F4.BetaL,POW.F4.BetaH,POW.F4.Gamma,POW.F8.Theta,POW.F8.Alpha,POW.F8.BetaL,POW.F8.BetaH,POW.F8.Gamma,POW.AF4.Theta,POW.AF4.Alpha,POW.AF4.BetaL,POW.AF4.BetaH,POW.AF4.Gamma
1605155868.575203,12.000000,0.000000,4139.358887,4156.025879,3949.230713,4072.692383,4062.948730,4179.102539,4163.717773,4172.051270,4264.230957,4182.307617,4164.487305,4143.205078,4183.974121,4165.000000,11988.000000,4.000000,,,,0.000000,4.000000,4.000000,4.000000,4.000000,4.000000,4.000000,4.000000,4.000000,4.000000,4.000000,4.000000,4.000000,4.000000,4.000000,100.000000,,,,,,,,,,,,,,,,,,,,,,,,,,,,,,,,,,,,,,,,,,,,,,,,,,,,,,,,,,,,,,,,,,,,,,
1605155868.583185,13.000000,0.000000,4132.692383,4171.410156,3949.102539,4079.871826,4059.871826,4182.307617,4169.615234,4171.794922,4257.051270,4181.025879,4172.948730,4133.717773,4194.358887,4164.615234,3179.000000,4.000000,,,,0.000000,4.000000,4.000000,4.000000,4.000000,4.000000,4.000000,4.000000,4.000000,4.000000,4.000000,4.000000,4.000000,4.000000,4.000000,100.000000,,,,,,,,,,,,,,,,,,,,,,,,,,,,,,,,,,,,,,,,,,,,,,,,,,,,,,,,,,,,,,,,,,,,,,
1605155868.591067,14.000000,0.000000,4155.641113,4171.282227,3961.025635,4095.384521,4049.230713,4182.179688,4168.846191,4169.615234,4252.051270,4172.436035,4184.487305,4130.769043,4201.410156,4158.205078,2824.000000,4.000000,,,,0.000000,4.000000,4.000000,4.000000,4.000000,4.000000,4.000000,4.000000,4.000000,4.000000,4.000000,4.000000,4.000000,4.000000,4.000000,100.000000,,,,,,,,,,,,,,,,,,,,,,,,,,,,,,,,,,,,,,,,,,,,,,,,,,,,,,,,,,,,,,,,,,,,,,
1605155868.599050,15.000000,0.000000,4172.563965,4160.256348,3964.743652,4094.615479,4037.435791,4185.000000,4168.333496,4170.769043,4257.179688,4171.794922,4200.641113,4141.922852,4195.512695,4158.589844,2740.000000,4.000000,,,,0.000000,4.000000,4.000000,4.000000,4.000000,4.000000,4.000000,4.000000,4.000000,4.000000,4.000000,4.000000,4.000000,4.000000,4.000000,100.000000,,,,,,,,,,,,,,,,,,,,,,,,,,,,,,,,,,,,,,,,,,,,,,,,,,,,,,,,,,,,,,,,,,,,,,
1605155868.606932,16.000000,0.000000,4153.077148,4162.179688,3953.076904,4076.025635,4033.205078,4177.820313,4167.307617,4173.717773,4261.282227,4184.230957,4192.436035,4147.948730,4187.307617,4162.948730,0.000000,4.000000,,,,0.000000,4.000000,4.000000,4.000000,4.000000,4.000000,4.000000,4.000000,4.000000,4.000000,4.000000,4.000000,4.000000,4.000000,4.000000,100.000000,,,,,,,,,,,,,,,,,,,,,,,,,,,,,,,,,,,,,,,,,,,,,,,,,,,,,,,,,,,,,,,,,,,,,,
1605155868.614914,17.000000,0.000000,4135.897461,4167.820313,3942.820557,4064.230713,4029.358887,4168.846191,4164.102539,4173.974121,4256.666504,4189.615234,4151.025879,4138.717773,4185.384766,4153.077148,0.000000,4.000000,,,,0.000000,4.000000,4.000000,4.000000,4.000000,4.000000,4.000000,4.000000,4.000000,4.000000,4.000000,4.000000,4.000000,4.000000,4.000000,100.000000,,,,,,,,,,,,,,,,,,,,,,,,,,,,,,,,,,,,,,,,,,,,,,,,,,,,,,,,,,,,,,,,,,,,,,
1605155868.622797,18.000000,0.000000,4144.358887,4162.307617,3945.897461,4076.538574,4013.333252,4172.692383,4162.307617,4171.025879,4253.974121,4179.487305,4131.153809,4132.948730,4184.871582,4146.794922,0.000000,4.000000,,,,0.000000,4.000000,4.000000,4.000000,4.000000,4.000000,4.000000,4.000000,4.000000,4.000000,4.000000,4.000000,4.000000,4.000000,4.000000,100.000000,,,,,,,,,,,,,,,,,,,,,,,,,,,,,,,,,,,,,,,,,,,,,,,,,,,,,,,,,,,,,,,,,,,,,,
1605155868.630779,19.000000,0.000000,4154.230957,4168.846191,3957.564209,4095.897461,3998.846191,4173.589844,4160.384766,4169.102539,4258.077148,4170.769043,4152.051270,4144.743652,4172.948730,4160.128418,0.000000,4.000000,,,,0.000000,4.000000,4.000000,4.000000,4.000000,4.000000,4.000000,4.000000,4.000000,4.000000,4.000000,4.000000,4.000000,4.000000,4.000000,100.000000,18.480797,3.711298,2.796759,2.217417,0.773391,3.719667,1.681157,1.074863,0.554104,1.174944,13.346479,5.223090,1.217550,0.662276,0.263608,1.377148,2.021219,1.028952,0.359719,0.663844,4.971040,0.641929,0.308714,0.300512,0.223148,1.015934,0.483519,0.124208,0.178964,0.128808,0.541996,0.245196,0.126598,0.130630,0.171722,0.433306,0.050135,0.118442,0.208190,0.119469,0.140809,0.113521,0.139627,0.131552,0.164313,2.192316,1.009275,1.800177,1.983394,0.887935,40.315720,19.530844,14.823856,8.982234,5.816546,2.437404,0.230858,0.795606,0.486839,0.366584,1.287536,0.886639,1.341142,1.615101,1.241263,2.531523,0.678393,0.821864,0.644353,0.645757
1605155868.638661,20.000000,0.000000,4152.948730,4182.179688,3965.000000,4098.333496,4000.897461,4168.461426,4165.897461,4172.692383,4260.769043,4179.743652,4188.333496,4161.410156,4168.717773,4169.358887,0.000000,4.000000,,,,0.000000,4.000000,4.000000,4.000000,4.000000,4.000000,4.000000,4.000000,4.000000,4.000000,4.000000,4.000000,4.000000,4.000000,4.000000,100.000000,,,,,,,,,,,,,,,,,,,,,,,,,,,,,,,,,,,,,,,,,,,,,,,,,,,,,,,,,,,,,,,,,,,,,,
1605155868.646643,21.000000,0.000000,4153.077148,4170.641113,3963.718018,4090.000000,4001.538574,4166.153809,4167.436035,4173.717773,4262.820313,4196.538574,4204.102539,4166.794922,4183.205078,4174.615234,0.000000,4.000000,,,,0.000000,4.000000,4.000000,4.000000,4.000000,4.000000,4.000000,4.000000,4.000000,4.000000,4.000000,4.000000,4.000000,4.000000,4.000000,100.000000,,,,,,,,,,,,,,,,,,,,,,,,,,,,,,,,,,,,,,,,,,,,,,,,,,,,,,,,,,,,,,,,,,,,,,
1605155868.654525,22.000000,0.000000,4152.820313,4154.487305,3960.256348,4080.641113,3990.256348,4166.794922,4156.153809,4170.000000,4263.205078,4193.461426,4176.025879,4157.179688,4180.641113,4175.384766,0.000000,4.000000,,,,0.000000,4.000000,4.000000,4.000000,4.000000,4.000000,4.000000,4.000000,4.000000,4.000000,4.000000,4.000000,4.000000,4.000000,4.000000,100.000000,,,,,,,,,,,,,,,,,,,,,,,,,,,,,,,,,,,,,,,,,,,,,,,,,,,,,,,,,,,,,,,,,,,,,,
1605155868.662507,23.000000,0.000000,4148.205078,4155.128418,3953.718018,4070.769287,3981.410156,4170.769043,4154.358887,4168.846191,4252.820313,4160.512695,4111.666504,4139.871582,4151.922852,4159.871582,0.000000,4.000000,,,,0.000000,4.000000,4.000000,4.000000,4.000000,4.000000,4.000000,4.000000,4.000000,4.000000,4.000000,4.000000,4.000000,4.000000,4.000000,100.000000,,,,,,,,,,,,,,,,,,,,,,,,,,,,,,,,,,,,,,,,,,,,,,,,,,,,,,,,,,,,,,,,,,,,,,
1605155868.670389,24.000000,0.000000,4147.948730,4162.948730,3945.000000,4073.333252,3980.897461,4170.769043,4165.000000,4171.410156,4250.641113,4142.307617,4088.846191,4133.333496,4141.025879,4157.948730,0.000000,4.000000,,,,0.000000,4.000000,4.000000,4.000000,4.000000,4.000000,4.000000,4.000000,4.000000,4.000000,4.000000,4.000000,4.000000,4.000000,4.000000,100.000000,,,,,,,,,,,,,,,,,,,,,,,,,,,,,,,,,,,,,,,,,,,,,,,,,,,,,,,,,,,,,,,,,,,,,,
1605155868.678371,25.000000,0.000000,4157.307617,4181.025879,3946.666748,4096.410156,3986.025635,4172.692383,4171.153809,4173.205078,4266.666504,4167.948730,4146.282227,4139.615234,4155.769043,4174.743652,0.000000,4.000000,,,,0.000000,4.000000,4.000000,4.000000,4.000000,4.000000,4.000000,4.000000,4.000000,4.000000,4.000000,4.000000,4.000000,4.000000,4.000000,100.000000,,,,,,,,,,,,,,,,,,,,,,,,,,,,,,,,,,,,,,,,,,,,,,,,,,,,,,,,,,,,,,,,,,,,,,
1605155868.686353,26.000000,0.000000,4155.897461,4195.128418,3946.666748,4105.897461,3986.923096,4179.102539,4169.358887,4173.205078,4267.051270,4183.846191,4180.384766,4138.974121,4163.077148,4170.512695,0.000000,4.000000,,,,0.000000,4.000000,4.000000,4.000000,4.000000,4.000000,4.000000,4.000000,4.000000,4.000000,4.000000,4.000000,4.000000,4.000000,4.000000,100.000000,,,,,,,,,,,,,,,,,,,,,,,,,,,,,,,,,,,,,,,,,,,,,,,,,,,,,,,,,,,,,,,,,,,,,,
1605155868.694236,27.000000,0.000000,4141.282227,4177.436035,3930.769287,4080.000000,3981.410156,4177.179688,4167.820313,4170.897461,4253.846191,4168.077148,4119.615234,4130.256348,4149.871582,4150.256348,0.000000,4.000000,,,,0.000000,4.000000,4.000000,4.000000,4.000000,4.000000,4.000000,4.000000,4.000000,4.000000,4.000000,4.000000,4.000000,4.000000,4.000000,100.000000,,,,,,,,,,,,,,,,,,,,,,,,,,,,,,,,,,,,,,,,,,,,,,,,,,,,,,,,,,,,,,,,,,,,,,
1605155868.702218,28.000000,0.000000,4136.410156,4150.000000,3921.281982,4059.358887,3981.410156,4171.922852,4169.230957,4168.846191,4257.307617,4163.461426,4070.128174,4131.153809,4138.077148,4153.974121,0.000000,4.000000,,,,0.000000,4.000000,4.000000,4.000000,4.000000,4.000000,4.000000,4.000000,4.000000,4.000000,4.000000,4.000000,4.000000,4.000000,4.000000,100.000000,,,,,,,,,,,,,,,,,,,,,,,,,,,,,,,,,,,,,,,,,,,,,,,,,,,,,,,,,,,,,,,,,,,,,,
1605155868.710100,29.000000,0.000000,4151.538574,4160.641113,3939.871826,4078.718018,3996.410156,4169.487305,4166.666504,4174.102539,4267.692383,4181.922852,4126.666504,4147.692383,4148.589844,4174.487305,0.000000,4.000000,,,,0.000000,4.000000,4.000000,4.000000,4.000000,4.000000,4.000000,4.000000,4.000000,4.000000,4.000000,4.000000,4.000000,4.000000,4.000000,100.000000,,,,,,,,,,,,,,,,,,,,,,,,,,,,,,,,,,,,,,,,,,,,,,,,,,,,,,,,,,,,,,,,,,,,,,
1605155868.718082,30.000000,0.000000,4170.256348,4186.153809,3960.384521,4101.922852,4006.153809,4165.769043,4160.128418,4180.641113,4266.922852,4192.820313,4199.615234,4166.025879,4157.820313,4184.615234,0.000000,4.000000,,,,0.000000,4.000000,4.000000,4.000000,4.000000,4.000000,4.000000,4.000000,4.000000,4.000000,4.000000,4.000000,4.000000,4.000000,4.000000,100.000000,,,,,,,,,,,,,,,,,,,,,,,,,,,,,,,,,,,,,,,,,,,,,,,,,,,,,,,,,,,,,,,,,,,,,,
1605155868.725965,31.000000,0.000000,4172.436035,4192.179688,3965.897461,4105.769043,4002.179443,4173.077148,4166.410156,4182.179688,4267.436035,4197.563965,4214.871582,4173.846191,4152.820313,4185.897461,0.000000,4.000000,,,,0.000000,4.000000,4.000000,4.000000,4.000000,4.000000,4.000000,4.000000,4.000000,4.000000,4.000000,4.000000,4.000000,4.000000,4.000000,100.000000,,,,,,,,,,,,,,,,,,,,,,,,,,,,,,,,,,,,,,,,,,,,,,,,,,,,,,,,,,,,,,,,,,,,,,
1605155868.733947,32.000000,0.000000,4172.948730,4192.307617,3975.897461,4108.846191,3999.615479,4185.897461,4177.948730,4183.461426,4271.153809,4215.512695,4231.922852,4171.410156,4155.256348,4183.846191,0.000000,4.000000,,,,0.000000,4.000000,4.000000,4.000000,4.000000,4.000000,4.000000,4.000000,4.000000,4.000000,4.000000,4.000000,4.000000,4.000000,4.000000,100.000000,,,,,,,,,,,,,,,,,,,,,,,,,,,,,,,,,,,,,,,,,,,,,,,,,,,,,,,,,,,,,,,,,,,,,,
1605155868.741829,33.000000,0.000000,4194.487305,4178.589844,3985.641113,4105.128418,3994.358887,4178.077148,4172.820313,4183.974121,4267.563965,4216.025879,4251.025879,4173.077148,4168.846191,4187.307617,0.000000,4.000000,,,,0.000000,4.000000,4.000000,4.000000,4.000000,4.000000,4.000000,4.000000,4.000000,4.000000,4.000000,4.000000,4.000000,4.000000,4.000000,100.000000,,,,,,,,,,,,,,,,,,,,,,,,,,,,,,,,,,,,,,,,,,,,,,,,,,,,,,,,,,,,,,,,,,,,,,
1605155868.749812,34.000000,0.000000,4208.461426,4156.666504,3982.435791,4087.820557,3995.512939,4172.051270,4167.563965,4181.666504,4264.358887,4187.692383,4236.282227,4179.487305,4165.256348,4196.538574,0.000000,4.000000,,,,0.000000,4.000000,4.000000,4.000000,4.000000,4.000000,4.000000,4.000000,4.000000,4.000000,4.000000,4.000000,4.000000,4.000000,4.000000,100.000000,,,,,,,,,,,,,,,,,,,,,,,,,,,,,,,,,,,,,,,,,,,,,,,,,,,,,,,,,,,,,,,,,,,,,,
1605155868.757694,35.000000,0.000000,4195.769043,4168.846191,3982.179443,4088.846191,4010.128174,4189.358887,4175.897461,4181.153809,4265.128418,4174.102539,4229.230957,4173.461426,4144.743652,4192.307617,0.000000,4.000000,,,,0.000000,4.000000,4.000000,4.000000,4.000000,4.000000,4.000000,4.000000,4.000000,4.000000,4.000000,4.000000,4.000000,4.000000,4.000000,100.000000,13.529141,3.311847,2.539558,2.121067,0.850550,2.842640,1.711732,1.288010,0.511791,1.203251,19.295813,5.958247,1.362305,0.696216,0.306352,1.241506,2.028185,1.193625,0.387281,0.665995,4.912283,0.580050,0.394635,0.340243,0.220078,1.177520,0.492800,0.110996,0.178357,0.148104,0.626562,0.225071,0.163867,0.134384,0.182081,0.488258,0.045780,0.137675,0.173614,0.121436,0.199718,0.111017,0.154074,0.136925,0.161790,2.066141,1.082453,2.308999,2.065056,0.798479,34.675327,19.920073,17.568424,8.052065,6.067862,2.238898,0.233781,0.799633,0.410672,0.381360,1.229102,1.028696,1.534960,1.302403,1.258049,2.345102,0.695726,0.909241,0.542864,0.616343
1605155868.765676,36.000000,0.000000,4211.538574,4204.871582,4003.076904,4118.717773,4018.846191,4188.333496,4174.871582,4183.846191,4266.025879,4200.384766,4268.333496,4171.153809,4152.307617,4187.436035,0.000000,4.000000,,,,0.000000,4.000000,4.000000,4.000000,4.000000,4.000000,4.000000,4.000000,4.000000,4.000000,4.000000,4.000000,4.000000,4.000000,4.000000,100.000000,,,,,,,,,,,,,,,,,,,,,,,,,,,,,,,,,,,,,,,,,,,,,,,,,,,,,,,,,,,,,,,,,,,,,,
1605155868.773559,37.000000,0.000000,4240.769043,4221.282227,4022.435791,4142.692383,4015.769287,4180.769043,4176.922852,4188.205078,4274.615234,4238.589844,4334.102539,4181.666504,4170.512695,4196.794922,0.000000,4.000000,,,,0.000000,4.000000,4.000000,4.000000,4.000000,4.000000,4.000000,4.000000,4.000000,4.000000,4.000000,4.000000,4.000000,4.000000,4.000000,100.000000,,,,,,,,,,,,,,,,,,,,,,,,,,,,,,,,,,,,,,,,,,,,,,,,,,,,,,,,,,,,,,,,,,,,,,
1605155868.781541,38.000000,0.000000,4210.128418,4213.077148,4015.512939,4130.641113,4020.128174,4199.615234,4196.794922,4192.307617,4280.128418,4236.922852,4353.974121,4180.897461,4152.563965,4195.000000,0.000000,4.000000,,,,0.000000,4.000000,4.000000,4.000000,4.000000,4.000000,4.000000,4.000000,4.000000,4.000000,4.000000,4.000000,4.000000,4.000000,4.000000,100.000000,,,,,,,,,,,,,,,,,,,,,,,,,,,,,,,,,,,,,,,,,,,,,,,,,,,,,,,,,,,,,,,,,,,,,,
1605155868.789423,39.000000,0.000000,4174.230957,4200.000000,4003.846191,4100.897461,4031.153809,4202.563965,4196.025879,4190.256348,4275.000000,4209.615234,4320.000000,4176.025879,4142.436035,4181.666504,0.000000,4.000000,,,,0.000000,4.000000,4.000000,4.000000,4.000000,4.000000,4.000000,4.000000,4.000000,4.000000,4.000000,4.000000,4.000000,4.000000,4.000000,100.000000,,,,,,,,,,,,,,,,,,,,,,,,,,,,,,,,,,,,,,,,,,,,,,,,,,,,,,,,,,,,,,,,,,,,,,
1605155868.797405,40.000000,0.000000,4196.794922,4204.230957,4012.051270,4110.128418,4029.871826,4183.717773,4176.794922,4186.025879,4276.282227,4217.051270,4320.512695,4185.512695,4167.820313,4188.974121,0.000000,4.000000,,,,0.000000,4.000000,4.000000,4.000000,4.000000,4.000000,4.000000,4.000000,4.000000,4.000000,4.000000,4.000000,4.000000,4.000000,4.000000,100.000000,,,,,,,,,,,,,,,,,,,,,,,,,,,,,,,,,,,,,,,,,,,,,,,,,,,,,,,,,,,,,,,,,,,,,,
1605155868.805287,41.000000,0.000000,4211.922852,4215.897461,4019.615479,4140.769043,4029.230713,4182.692383,4172.307617,4187.820313,4282.051270,4240.512695,4364.743652,4191.666504,4179.102539,4208.846191,0.000000,4.000000,,,,0.000000,4.000000,4.000000,4.000000,4.000000,4.000000,4.000000,4.000000,4.000000,4.000000,4.000000,4.000000,4.000000,4.000000,4.000000,100.000000,,,,,,,,,,,,,,,,,,,,,,,,,,,,,,,,,,,,,,,,,,,,,,,,,,,,,,,,,,,,,,,,,,,,,,
1605155868.813269,42.000000,0.000000,4187.563965,4198.205078,4010.512939,4127.051270,4041.153809,4189.102539,4175.384766,4186.538574,4279.615234,4233.333496,4345.384766,4185.128418,4169.487305,4203.974121,0.000000,4.000000,,,,0.000000,4.000000,4.000000,4.000000,4.000000,4.000000,4.000000,4.000000,4.000000,4.000000,4.000000,4.000000,4.000000,4.000000,4.000000,100.000000,,,,,,,,,,,,,,,,,,,,,,,,,,,,,,,,,,,,,,,,,,,,,,,,,,,,,,,,,,,,,,,,,,,,,,
1605155868.821151,43.000000,0.000000,4177.563965,4174.230957,4000.512939,4096.922852,4049.743652,4191.282227,4179.358887,4184.871582,4278.333496,4224.358887,4297.820313,4182.563965,4164.358887,4184.102539,0.000000,4.000000,,,,0.000000,4.000000,4.000000,4.000000,4.000000,4.000000,4.000000,4.000000,4.000000,4.000000,4.000000,4.000000,4.000000,4.000000,4.000000,100.000000,,,,,,,,,,,,,,,,,,,,,,,,,,,,,,,,,,,,,,,,,,,,,,,,,,,,,,,,,,,,,,,,,,,,,,
1605155868.829133,44.000000,0.000000,4186.282227,4201.025879,4009.102539,4122.692383,4058.076904,4200.897461,4190.000000,4195.384766,4290.769043,4244.871582,4346.153809,4194.102539,4169.230957,4189.102539,0.000000,4.000000,,,,0.000000,4.000000,4.000000,4.000000,4.000000,4.000000,4.000000,4.000000,4.000000,4.000000,4.000000,4.000000,4.000000,4.000000,4.000000,100.000000,,,,,,,,,,,,,,,,,,,,,,,,,,,,,,,,,,,,,,,,,,,,,,,,,,,,,,,,,,,,,,,,,,,,,,
1605155868.837015,45.000000,0.000000,4188.717773,4238.205078,4027.564209,4157.051270,4071.281982,4201.794922,4192.307617,4199.358887,4297.820313,4264.487305,4438.846191,4208.461426,4184.102539,4211.666504,0.000000,4.000000,,,,0.000000,4.000000,4.000000,4.000000,4.000000,4.000000,4.000000,4.000000,4.000000,4.000000,4.000000,4.000000,4.000000,4.000000,4.000000,100.000000,,,,,,,,,,,,,,,,,,,,,,,,,,,,,,,,,,,,,,,,,,,,,,,,,,,,,,,,,,,,,,,,,,,,,,
1605155868.844997,46.000000,0.000000,4185.384766,4225.128418,4031.538574,4135.384766,4071.794922,4187.820313,4184.230957,4185.512695,4283.589844,4254.230957,4417.948730,4203.077148,4183.461426,4208.461426,0.000000,4.000000,,,,0.000000,4.000000,4.000000,4.000000,4.000000,4.000000,4.000000,4.000000,4.000000,4.000000,4.000000,4.000000,4.000000,4.000000,4.000000,100.000000,,,,,,,,,,,,,,,,,,,,,,,,,,,,,,,,,,,,,,,,,,,,,,,,,,,,,,,,,,,,,,,,,,,,,,
1605155868.852879,47.000000,0.000000,4183.589844,4202.051270,4025.641113,4116.025879,4060.641113,4182.820313,4182.692383,4180.641113,4274.358887,4239.615234,4356.282227,4193.589844,4165.128418,4195.256348,0.000000,4.000000,,,,0.000000,4.000000,4.000000,4.000000,4.000000,4.000000,4.000000,4.000000,4.000000,4.000000,4.000000,4.000000,4.000000,4.000000,4.000000,100.000000,,,,,,,,,,,,,,,,,,,,,,,,,,,,,,,,,,,,,,,,,,,,,,,,,,,,,,,,,,,,,,,,,,,,,,
1605155868.860662,48.000000,0.000000,4188.974121,4207.820313,4030.512939,4129.743652,4059.487061,4190.769043,4185.641113,4187.820313,4282.820313,4247.051270,4381.538574,4196.025879,4164.230957,4203.333496,0.000000,4.000000,,,,0.000000,4.000000,4.000000,4.000000,4.000000,4.000000,4.000000,4.000000,4.000000,4.000000,4.000000,4.000000,4.000000,4.000000,4.000000,100.000000,,,,,,,,,,,,,,,,,,,,,,,,,,,,,,,,,,,,,,,,,,,,,,,,,,,,,,,,,,,,,,,,,,,,,,
1605155868.868544,49.000000,0.000000,4189.487305,4213.589844,4036.281982,4133.077148,4059.102539,4201.538574,4192.307617,4188.077148,4287.948730,4253.846191,4409.487305,4189.102539,4179.871582,4201.922852,0.000000,4.000000,,,,0.000000,4.000000,4.000000,4.000000,4.000000,4.000000,4.000000,4.000000,4.000000,4.000000,4.000000,4.000000,4.000000,4.000000,4.000000,100.000000,,,,,,,,,,,,,,,,,,,,,,,,,,,,,,,,,,,,,,,,,,,,,,,,,,,,,,,,,,,,,,,,,,,,,,
1605155868.876326,50.000000,0.000000,4182.692383,4212.563965,4037.564209,4138.333496,4055.000000,4196.282227,4195.000000,4183.974121,4280.128418,4241.282227,4383.461426,4178.717773,4182.051270,4185.897461,0.000000,4.000000,,,,0.000000,4.000000,4.000000,4.000000,4.000000,4.000000,4.000000,4.000000,4.000000,4.000000,4.000000,4.000000,4.000000,4.000000,4.000000,100.000000,,,,,,,,,,,,,,,,,,,,,,,,,,,,,,,,,,,,,,,,,,,,,,,,,,,,,,,,,,,,,,,,,,,,,,
1605155868.884208,51.000000,0.000000,4179.743652,4220.384766,4042.820557,4153.717773,4052.307617,4184.615234,4192.820313,4186.922852,4279.871582,4234.358887,4377.563965,4181.410156,4173.846191,4180.000000,0.000000,4.000000,,,,0.000000,4.000000,4.000000,4.000000,4.000000,4.000000,4.000000,4.000000,4.000000,4.000000,4.000000,4.000000,4.000000,4.000000,4.000000,100.000000,8.986065,2.925315,2.489060,2.133365,0.964236,2.049627,1.775299,1.534948,0.525084,1.191157,24.072344,5.984351,1.440836,0.702568,0.362787,1.070320,1.916128,1.319594,0.440300,0.691129,4.345656,0.515249,0.467689,0.367813,0.224938,1.306471,0.473711,0.107670,0.182226,0.177109,0.714561,0.212673,0.218036,0.143880,0.203359,0.498606,0.042714,0.159558,0.140565,0.122997,0.257506,0.114220,0.175404,0.144950,0.161308,2.026932,1.221561,2.905174,2.129251,0.748744,28.824417,19.318350,19.621145,7.573813,6.291530,1.964896,0.256841,0.831778,0.372209,0.392678,1.224337,1.228841,1.721847,1.096830,1.258365,1.997888,0.692205,1.019280,0.549811,0.599037
1605155868.891990,52.000000,0.000000,4185.769043,4217.948730,4043.718018,4144.358887,4055.384521,4193.461426,4197.820313,4192.436035,4288.461426,4245.256348,4398.974121,4187.179688,4175.769043,4186.025879,0.000000,4.000000,,,,0.000000,4.000000,4.000000,4.000000,4.000000,4.000000,4.000000,4.000000,4.000000,4.000000,4.000000,4.000000,4.000000,4.000000,4.000000,100.000000,,,,,,,,,,,,,,,,,,,,,,,,,,,,,,,,,,,,,,,,,,,,,,,,,,,,,,,,,,,,,,,,,,,,,,
1605155868.899872,53.000000,0.000000,4188.461426,4203.205078,4039.230713,4126.410156,4068.974365,4199.871582,4201.410156,4192.436035,4286.922852,4248.589844,4394.615234,4187.948730,4176.410156,4196.025879,0.000000,4.000000,,,,0.000000,4.000000,4.000000,4.000000,4.000000,4.000000,4.000000,4.000000,4.000000,4.000000,4.000000,4.000000,4.000000,4.000000,4.000000,100.000000,,,,,,,,,,,,,,,,,,,,,,,,,,,,,,,,,,,,,,,,,,,,,,,,,,,,,,,,,,,,,,,,,,,,,,
1605155868.907654,54.000000,0.000000,4179.230957,4197.692383,4036.281982,4129.358887,4071.923096,4187.436035,4196.794922,4187.179688,4278.077148,4232.692383,4368.077148,4180.897461,4150.512695,4195.128418,0.000000,4.000000,,,,0.000000,4.000000,4.000000,4.000000,4.000000,4.000000,4.000000,4.000000,4.000000,4.000000,4.000000,4.000000,4.000000,4.000000,4.000000,100.000000,,,,,,,,,,,,,,,,,,,,,,,,,,,,,,,,,,,,,,,,,,,,,,,,,,,,,,,,,,,,,,,,,,,,,,
1605155868.915637,55.000000,0.000000,4171.025879,4196.666504,4033.718018,4135.256348,4059.487061,4182.051270,4199.615234,4185.256348,4275.256348,4216.794922,4325.256348,4172.051270,4137.307617,4180.384766,0.000000,4.000000,,,,0.000000,4.000000,4.000000,4.000000,4.000000,4.000000,4.000000,4.000000,4.000000,4.000000,4.000000,4.000000,4.000000,4.000000,4.000000,100.000000,,,,,,,,,,,,,,,,,,,,,,,,,,,,,,,,,,,,,,,,,,,,,,,,,,,,,,,,,,,,,,,,,,,,,,
1605155868.923519,56.000000,0.000000,4167.692383,4196.410156,4036.794922,4130.128418,4061.666748,4188.077148,4211.538574,4190.641113,4280.641113,4226.794922,4323.846191,4178.077148,4165.641113,4181.794922,0.000000,4.000000,,,,0.000000,4.000000,4.000000,4.000000,4.000000,4.000000,4.000000,4.000000,4.000000,4.000000,4.000000,4.000000,4.000000,4.000000,4.000000,100.000000,,,,,,,,,,,,,,,,,,,,,,,,,,,,,,,,,,,,,,,,,,,,,,,,,,,,,,,,,,,,,,,,,,,,,,
1605155868.931501,57.000000,0.000000,4164.487305,4202.436035,4039.615479,4125.897461,4074.871826,4189.487305,4213.205078,4192.563965,4280.641113,4243.461426,4367.307617,4185.641113,4173.974121,4195.000000,0.000000,4.000000,,,,0.000000,4.000000,4.000000,4.000000,4.000000,4.000000,4.000000,4.000000,4.000000,4.000000,4.000000,4.000000,4.000000,4.000000,4.000000,100.000000,,,,,,,,,,,,,,,,,,,,,,,,,,,,,,,,,,,,,,,,,,,,,,,,,,,,,,,,,,,,,,,,,,,,,,
1605155868.939383,58.000000,0.000000,4163.461426,4206.410156,4038.076904,4137.563965,4072.564209,4184.743652,4202.563965,4187.436035,4273.589844,4234.230957,4361.025879,4172.820313,4155.256348,4191.153809,0.000000,4.000000,,,,0.000000,4.000000,4.000000,4.000000,4.000000,4.000000,4.000000,4.000000,4.000000,4.000000,4.000000,4.000000,4.000000,4.000000,4.000000,100.000000,,,,,,,,,,,,,,,,,,,,,,,,,,,,,,,,,,,,,,,,,,,,,,,,,,,,,,,,,,,,,,,,,,,,,,
1605155868.947365,59.000000,0.000000,4171.666504,4203.846191,4044.102539,4148.589844,4072.179443,4183.205078,4197.948730,4185.641113,4273.077148,4216.282227,4327.820313,4162.307617,4160.897461,4189.358887,0.000000,4.000000,,,,0.000000,4.000000,4.000000,4.000000,4.000000,4.000000,4.000000,4.000000,4.000000,4.000000,4.000000,4.000000,4.000000,4.000000,4.000000,100.000000,,,,,,,,,,,,,,,,,,,,,,,,,,,,,,,,,,,,,,,,,,,,,,,,,,,,,,,,,,,,,,,,,,,,,,
1605155868.955247,60.000000,0.000000,4176.410156,4198.333496,4045.897461,4136.922852,4078.461426,4189.230957,4204.230957,4186.282227,4274.871582,4212.948730,4327.307617,4160.384766,4162.820313,4190.256348,0.000000,4.000000,,,,0.000000,4.000000,4.000000,4.000000,4.000000,4.000000,4.000000,4.000000,4.000000,4.000000,4.000000,4.000000,4.000000,4.000000,4.000000,100.000000,,,,,,,,,,,,,,,,,,,,,,,,,,,,,,,,,,,,,,,,,,,,,,,,,,,,,,,,,,,,,,,,,,,,,,
1605155868.963229,61.000000,0.000000,4166.922852,4195.897461,4041.538574,4136.410156,4076.025635,4197.436035,4210.128418,4190.128418,4275.512695,4221.282227,4331.025879,4154.487305,4148.077148,4174.358887,0.000000,4.000000,,,,0.000000,4.000000,4.000000,4.000000,4.000000,4.000000,4.000000,4.000000,4.000000,4.000000,4.000000,4.000000,4.000000,4.000000,4.000000,100.000000,,,,,,,,,,,,,,,,,,,,,,,,,,,,,,,,,,,,,,,,,,,,,,,,,,,,,,,,,,,,,,,,,,,,,,
1605155868.971111,62.000000,0.000000,4159.102539,4190.769043,4042.435791,4145.512695,4074.230713,4190.512695,4205.897461,4191.922852,4275.384766,4222.948730,4328.974121,4156.282227,4159.487305,4169.230957,0.000000,4.000000,,,,0.000000,4.000000,4.000000,4.000000,4.000000,4.000000,4.000000,4.000000,4.000000,4.000000,4.000000,4.000000,4.000000,4.000000,4.000000,100.000000,,,,,,,,,,,,,,,,,,,,,,,,,,,,,,,,,,,,,,,,,,,,,,,,,,,,,,,,,,,,,,,,,,,,,,
1605155868.979093,63.000000,0.000000,4162.948730,4177.692383,4041.794922,4122.563965,4073.461426,4177.948730,4201.153809,4188.717773,4276.025879,4212.692383,4311.153809,4165.512695,4169.487305,4181.282227,0.000000,4.000000,,,,0.000000,4.000000,4.000000,4.000000,4.000000,4.000000,4.000000,4.000000,4.000000,4.000000,4.000000,4.000000,4.000000,4.000000,4.000000,100.000000,,,,,,,,,,,,,,,,,,,,,,,,,,,,,,,,,,,,,,,,,,,,,,,,,,,,,,,,,,,,,,,,,,,,,,
1605155868.986975,64.000000,0.000000,4185.384766,4188.846191,4050.769287,4113.589844,4075.128174,4180.256348,4203.974121,4189.615234,4277.179688,4215.128418,4316.538574,4173.333496,4153.077148,4186.025879,2976.000000,4.000000,,,,0.000000,4.000000,4.000000,4.000000,4.000000,4.000000,4.000000,4.000000,4.000000,4.000000,4.000000,4.000000,4.000000,4.000000,4.000000,100.000000,,,,,,,,,,,,,,,,,,,,,,,,,,,,,,,,,,,,,,,,,,,,,,,,,,,,,,,,,,,,,,,,,,,,,,
1605155868.994957,65.000000,0.000000,4208.205078,4224.743652,4073.205078,4151.922852,4086.281982,4185.000000,4207.179688,4192.436035,4278.717773,4233.461426,4378.461426,4180.897461,4154.487305,4186.282227,3145.000000,4.000000,,,,0.000000,4.000000,4.000000,4.000000,4.000000,4.000000,4.000000,4.000000,4.000000,4.000000,4.000000,4.000000,4.000000,4.000000,4.000000,100.000000,,,,,,,,,,,,,,,,,,,,,,,,,,,,,,,,,,,,,,,,,,,,,,,,,,,,,,,,,,,,,,,,,,,,,,
1605155869.002840,66.000000,0.000000,4195.769043,4225.512695,4074.871826,4170.128418,4093.846191,4181.666504,4204.743652,4189.102539,4278.461426,4244.102539,4420.000000,4188.205078,4178.974121,4191.666504,2588.000000,4.000000,,,,0.000000,4.000000,4.000000,4.000000,4.000000,4.000000,4.000000,4.000000,4.000000,4.000000,4.000000,4.000000,4.000000,4.000000,4.000000,100.000000,,,,,,,,,,,,,,,,,,,,,,,,,,,,,,,,,,,,,,,,,,,,,,,,,,,,,,,,,,,,,,,,,,,,,,
1605155869.010822,67.000000,0.000000,4163.974121,4193.589844,4052.692383,4145.769043,4084.102539,4180.641113,4196.666504,4185.128418,4268.717773,4230.897461,4372.179688,4181.153809,4179.230957,4188.077148,3248.000000,4.000000,,,,0.000000,4.000000,4.000000,4.000000,4.000000,4.000000,4.000000,4.000000,4.000000,4.000000,4.000000,4.000000,4.000000,4.000000,4.000000,100.000000,5.676220,2.663869,2.507186,2.151397,1.081176,1.573701,1.862532,1.739458,0.617407,1.142254,26.773739,5.343233,1.424619,0.682762,0.421488,0.936234,1.737438,1.371662,0.548781,0.726175,3.672256,0.466214,0.517888,0.375080,0.234542,1.340758,0.442797,0.118234,0.192541,0.208900,0.755233,0.213051,0.278369,0.161115,0.232918,0.450139,0.042704,0.172573,0.115688,0.123924,0.308523,0.122207,0.193231,0.151981,0.168410,2.075768,1.417963,3.381499,2.151458,0.783360,25.666008,18.293552,20.167839,7.631151,6.528833,1.721137,0.346006,0.855407,0.367114,0.402447,1.234882,1.429983,1.827526,0.996103,1.250120,1.646389,0.696323,1.095586,0.627961,0.584189
1605155869.018804,68.000000,0.000000,4163.205078,4183.333496,4048.589844,4131.282227,4077.948730,4179.871582,4188.846191,4183.846191,4262.051270,4213.461426,4319.615234,4172.436035,4171.538574,4188.589844,3279.000000,4.000000,,,,0.000000,4.000000,4.000000,4.000000,4.000000,4.000000,4.000000,4.000000,4.000000,4.000000,4.000000,4.000000,4.000000,4.000000,4.000000,100.000000,,,,,,,,,,,,,,,,,,,,,,,,,,,,,,,,,,,,,,,,,,,,,,,,,,,,,,,,,,,,,,,,,,,,,,
1605155869.026686,69.000000,0.000000,4184.615234,4197.820313,4066.666748,4145.512695,4091.794922,4173.846191,4191.666504,4186.025879,4268.974121,4223.461426,4339.102539,4177.179688,4178.333496,4202.179688,2345.000000,4.000000,,,,0.000000,4.000000,4.000000,4.000000,4.000000,4.000000,4.000000,4.000000,4.000000,4.000000,4.000000,4.000000,4.000000,4.000000,4.000000,100.000000,,,,,,,,,,,,,,,,,,,,,,,,,,,,,,,,,,,,,,,,,,,,,,,,,,,,,,,,,,,,,,,,,,,,,,
1605155869.034668,70.000000,0.000000,4188.589844,4209.743652,4077.307617,4157.436035,4110.641113,4174.871582,4201.025879,4193.589844,4280.256348,4248.077148,4378.974121,4177.179688,4172.820313,4201.922852,2734.000000,4.000000,,,,0.000000,4.000000,4.000000,4.000000,4.000000,4.000000,4.000000,4.000000,4.000000,4.000000,4.000000,4.000000,4.000000,4.000000,4.000000,100.000000,,,,,,,,,,,,,,,,,,,,,,,,,,,,,,,,,,,,,,,,,,,,,,,,,,,,,,,,,,,,,,,,,,,,,,
1605155869.042551,71.000000,0.000000,4177.948730,4212.948730,4073.461426,4151.538574,4117.563965,4185.128418,4203.077148,4195.897461,4279.230957,4252.436035,4393.461426,4166.538574,4167.948730,4185.641113,2435.000000,4.000000,,,,0.000000,4.000000,4.000000,4.000000,4.000000,4.000000,4.000000,4.000000,4.000000,4.000000,4.000000,4.000000,4.000000,4.000000,4.000000,100.000000,,,,,,,,,,,,,,,,,,,,,,,,,,,,,,,,,,,,,,,,,,,,,,,,,,,,,,,,,,,,,,,,,,,,,,
1605155869.050533,72.000000,0.000000,4167.436035,4203.846191,4062.435791,4139.743652,4108.589844,4185.256348,4195.128418,4188.589844,4268.589844,4229.487305,4349.743652,4152.692383,4167.179688,4175.128418,2997.000000,4.000000,,,,0.000000,4.000000,4.000000,4.000000,4.000000,4.000000,4.000000,4.000000,4.000000,4.000000,4.000000,4.000000,4.000000,4.000000,4.000000,100.000000,,,,,,,,,,,,,,,,,,,,,,,,,,,,,,,,,,,,,,,,,,,,,,,,,,,,,,,,,,,,,,,,,,,,,,
1605155869.058415,73.000000,0.000000,4170.512695,4199.871582,4066.923096,4144.358887,4103.333496,4180.384766,4194.358887,4191.538574,4270.000000,4218.461426,4323.205078,4153.205078,4163.846191,4178.974121,4181.000000,4.000000,,,,0.000000,4.000000,4.000000,4.000000,4.000000,4.000000,4.000000,4.000000,4.000000,4.000000,4.000000,4.000000,4.000000,4.000000,4.000000,100.000000,,,,,,,,,,,,,,,,,,,,,,,,,,,,,,,,,,,,,,,,,,,,,,,,,,,,,,,,,,,,,,,,,,,,,,
1605155869.066398,74.000000,0.000000,4189.102539,4224.615234,4089.615479,4163.205078,4114.743652,4186.153809,4208.974121,4202.051270,4284.615234,4253.333496,4408.974121,4173.974121,4184.487305,4190.769043,2825.000000,4.000000,,,,0.000000,4.000000,4.000000,4.000000,4.000000,4.000000,4.000000,4.000000,4.000000,4.000000,4.000000,4.000000,4.000000,4.000000,4.000000,100.000000,,,,,,,,,,,,,,,,,,,,,,,,,,,,,,,,,,,,,,,,,,,,,,,,,,,,,,,,,,,,,,,,,,,,,,
1605155869.074280,75.000000,0.000000,4208.205078,4233.461426,4101.794922,4172.948730,4121.153809,4190.384766,4216.410156,4203.846191,4288.077148,4284.487305,4484.615234,4186.282227,4199.615234,4198.205078,2738.000000,4.000000,,,,0.000000,4.000000,4.000000,4.000000,4.000000,4.000000,4.000000,4.000000,4.000000,4.000000,4.000000,4.000000,4.000000,4.000000,4.000000,100.000000,,,,,,,,,,,,,,,,,,,,,,,,,,,,,,,,,,,,,,,,,,,,,,,,,,,,,,,,,,,,,,,,,,,,,,
1605155869.082262,76.000000,0.000000,4221.666504,4216.538574,4098.077148,4172.820313,4114.358887,4184.230957,4207.051270,4199.743652,4281.410156,4271.282227,4469.743652,4186.282227,4194.102539,4200.512695,11865.000000,4.000000,,,,0.000000,4.000000,4.000000,4.000000,4.000000,4.000000,4.000000,4.000000,4.000000,4.000000,4.000000,4.000000,4.000000,4.000000,4.000000,100.000000,,,,,,,,,,,,,,,,,,,,,,,,,,,,,,,,,,,,,,,,,,,,,,,,,,,,,,,,,,,,,,,,,,,,,,
1605155869.090145,77.000000,0.000000,4221.410156,4214.230957,4092.564209,4163.974121,4113.333496,4182.692383,4203.717773,4198.846191,4282.563965,4258.846191,4474.102539,4190.256348,4203.333496,4204.102539,3163.000000,4.000000,,,,0.000000,4.000000,4.000000,4.000000,4.000000,4.000000,4.000000,4.000000,4.000000,4.000000,4.000000,4.000000,4.000000,4.000000,4.000000,100.000000,,,,,,,,,,,,,,,,,,,,,,,,,,,,,,,,,,,,,,,,,,,,,,,,,,,,,,,,,,,,,,,,,,,,,,
1605155869.098127,78.000000,0.000000,4212.563965,4236.538574,4099.230957,4170.641113,4121.538574,4188.717773,4214.102539,4201.282227,4287.179688,4272.563965,4509.230957,4194.743652,4213.077148,4204.615234,2825.000000,4.000000,,,,0.000000,4.000000,4.000000,4.000000,4.000000,4.000000,4.000000,4.000000,4.000000,4.000000,4.000000,4.000000,4.000000,4.000000,4.000000,100.000000,,,,,,,,,,,,,,,,,,,,,,,,,,,,,,,,,,,,,,,,,,,,,,,,,,,,,,,,,,,,,,,,,,,,,,
1605155869.106009,79.000000,0.000000,4211.410156,4245.769043,4106.666504,4189.358887,4122.051270,4189.487305,4215.384766,4202.179688,4282.820313,4265.769043,4485.128418,4190.512695,4186.666504,4197.563965,2738.000000,4.000000,,,,0.000000,4.000000,4.000000,4.000000,4.000000,4.000000,4.000000,4.000000,4.000000,4.000000,4.000000,4.000000,4.000000,4.000000,4.000000,100.000000,,,,,,,,,,,,,,,,,,,,,,,,,,,,,,,,,,,,,,,,,,,,,,,,,,,,,,,,,,,,,,,,,,,,,,
1605155869.113991,80.000000,0.000000,4213.846191,4223.717773,4100.897461,4172.692383,4118.333496,4184.871582,4211.025879,4198.974121,4275.384766,4245.641113,4427.179688,4188.333496,4166.410156,4199.871582,11865.000000,4.000000,,,,0.000000,4.000000,4.000000,4.000000,4.000000,4.000000,4.000000,4.000000,4.000000,4.000000,4.000000,4.000000,4.000000,4.000000,4.000000,100.000000,,,,,,,,,,,,,,,,,,,,,,,,,,,,,,,,,,,,,,,,,,,,,,,,,,,,,,,,,,,,,,,,,,,,,,
1605155869.121873,81.000000,0.000000,4212.563965,4202.692383,4093.846191,4150.256348,4115.384766,4184.102539,4209.102539,4198.205078,4273.461426,4249.358887,4422.563965,4187.307617,4178.717773,4209.358887,3163.000000,4.000000,,,,0.000000,4.000000,4.000000,4.000000,4.000000,4.000000,4.000000,4.000000,4.000000,4.000000,4.000000,4.000000,4.000000,4.000000,4.000000,100.000000,,,,,,,,,,,,,,,,,,,,,,,,,,,,,,,,,,,,,,,,,,,,,,,,,,,,,,,,,,,,,,,,,,,,,,
1605155869.129855,82.000000,0.000000,4217.692383,4210.384766,4105.384766,4175.384766,4111.794922,4183.974121,4206.538574,4199.102539,4276.025879,4254.871582,4448.717773,4183.974121,4196.666504,4209.615234,2825.000000,4.000000,,,,0.000000,4.000000,4.000000,4.000000,4.000000,4.000000,4.000000,4.000000,4.000000,4.000000,4.000000,4.000000,4.000000,4.000000,4.000000,100.000000,,,,,,,,,,,,,,,,,,,,,,,,,,,,,,,,,,,,,,,,,,,,,,,,,,,,,,,,,,,,,,,,,,,,,,
1605155869.137737,83.000000,0.000000,4230.512695,4233.333496,4121.410156,4195.769043,4113.205078,4183.589844,4206.538574,4199.230957,4276.538574,4249.487305,4474.743652,4190.256348,4206.666504,4206.666504,2738.000000,4.000000,,,,0.000000,4.000000,4.000000,4.000000,4.000000,4.000000,4.000000,4.000000,4.000000,4.000000,4.000000,4.000000,4.000000,4.000000,4.000000,100.000000,3.926401,2.577474,2.455038,2.064721,1.172127,1.402807,1.938457,1.827746,0.819167,1.084204,25.880241,4.340055,1.341303,0.654583,0.470671,0.897792,1.548223,1.338247,0.753098,0.775696,3.228644,0.457456,0.538919,0.362181,0.246516,1.264376,0.420710,0.138923,0.212194,0.238533,0.770706,0.228089,0.330355,0.191518,0.265212,0.366816,0.046863,0.171330,0.102770,0.123774,0.326437,0.133395,0.199210,0.157316,0.187069,2.241613,1.654132,3.581179,2.122015,0.919499,25.518795,17.545235,19.176542,8.234308,6.843616,1.578923,0.564404,0.850243,0.386217,0.412857,1.331109,1.572260,1.824526,0.981484,1.238600,1.359962,0.746749,1.105137,0.726774,0.568460
1605155869.145519,84.000000,0.000000,4233.333496,4234.743652,4122.179688,4182.179688,4115.000000,4186.538574,4207.563965,4201.025879,4277.563965,4255.384766,4493.205078,4200.769043,4201.282227,4204.487305,11865.000000,4.000000,,,,0.000000,4.000000,4.000000,4.000000,4.000000,4.000000,4.000000,4.000000,4.000000,4.000000,4.000000,4.000000,4.000000,4.000000,4.000000,100.000000,,,,,,,,,,,,,,,,,,,,,,,,,,,,,,,,,,,,,,,,,,,,,,,,,,,,,,,,,,,,,,,,,,,,,,
1605155869.153401,85.000000,0.000000,4223.974121,4219.871582,4121.025879,4189.615234,4102.948730,4188.717773,4207.179688,4202.307617,4280.897461,4270.000000,4492.820313,4197.948730,4192.820313,4199.102539,3163.000000,4.000000,,,,0.000000,4.000000,4.000000,4.000000,4.000000,4.000000,4.000000,4.000000,4.000000,4.000000,4.000000,4.000000,4.000000,4.000000,4.000000,100.000000,,,,,,,,,,,,,,,,,,,,,,,,,,,,,,,,,,,,,,,,,,,,,,,,,,,,,,,,,,,,,,,,,,,,,,
1605155869.161184,86.000000,0.000000,4213.205078,4213.846191,4118.333496,4195.256348,4090.641113,4186.025879,4208.461426,4199.615234,4275.897461,4262.692383,4469.743652,4187.307617,4198.717773,4198.333496,2825.000000,4.000000,,,,0.000000,4.000000,4.000000,4.000000,4.000000,4.000000,4.000000,4.000000,4.000000,4.000000,4.000000,4.000000,4.000000,4.000000,4.000000,100.000000,,,,,,,,,,,,,,,,,,,,,,,,,,,,,,,,,,,,,,,,,,,,,,,,,,,,,,,,,,,,,,,,,,,,,,
1605155869.169066,87.000000,0.000000,4213.974121,4205.000000,4111.538574,4165.769043,4087.564209,4182.692383,4203.974121,4198.717773,4265.769043,4232.692383,4431.153809,4184.358887,4200.897461,4200.512695,2738.000000,4.000000,,,,0.000000,4.000000,4.000000,4.000000,4.000000,4.000000,4.000000,4.000000,4.000000,4.000000,4.000000,4.000000,4.000000,4.000000,4.000000,100.000000,,,,,,,,,,,,,,,,,,,,,,,,,,,,,,,,,,,,,,,,,,,,,,,,,,,,,,,,,,,,,,,,,,,,,,
1605155869.176848,88.000000,0.000000,4223.846191,4195.641113,4110.769043,4156.025879,4088.076904,4183.333496,4200.000000,4201.410156,4268.974121,4223.205078,4409.102539,4188.205078,4188.333496,4196.794922,11865.000000,4.000000,,,,0.000000,4.000000,4.000000,4.000000,4.000000,4.000000,4.000000,4.000000,4.000000,4.000000,4.000000,4.000000,4.000000,4.000000,4.000000,100.000000,,,,,,,,,,,,,,,,,,,,,,,,,,,,,,,,,,,,,,,,,,,,,,,,,,,,,,,,,,,,,,,,,,,,,,
1605155869.184730,89.000000,0.000000,4224.102539,4204.487305,4115.897461,4179.615234,4095.128174,4186.538574,4206.922852,4201.025879,4278.846191,4241.538574,4418.205078,4188.333496,4183.589844,4195.897461,3163.000000,4.000000,,,,0.000000,4.000000,4.000000,4.000000,4.000000,4.000000,4.000000,4.000000,4.000000,4.000000,4.000000,4.000000,4.000000,4.000000,4.000000,100.000000,,,,,,,,,,,,,,,,,,,,,,,,,,,,,,,,,,,,,,,,,,,,,,,,,,,,,,,,,,,,,,,,,,,,,,
1605155869.192512,90.000000,0.000000,4215.384766,4217.948730,4121.410156,4188.846191,4099.615234,4186.153809,4210.128418,4199.871582,4276.025879,4251.410156,4439.487305,4187.692383,4198.205078,4201.666504,2825.000000,4.000000,,,,0.000000,4.000000,4.000000,4.000000,4.000000,4.000000,4.000000,4.000000,4.000000,4.000000,4.000000,4.000000,4.000000,4.000000,4.000000,100.000000,,,,,,,,,,,,,,,,,,,,,,,,,,,,,,,,,,,,,,,,,,,,,,,,,,,,,,,,,,,,,,,,,,,,,,
1605155869.200495,91.000000,0.000000,4217.692383,4204.743652,4121.282227,4175.256348,4092.564209,4183.077148,4202.307617,4198.717773,4267.051270,4243.077148,4427.563965,4184.230957,4197.563965,4197.436035,2738.000000,4.000000,,,,0.000000,4.000000,4.000000,4.000000,4.000000,4.000000,4.000000,4.000000,4.000000,4.000000,4.000000,4.000000,4.000000,4.000000,4.000000,100.000000,,,,,,,,,,,,,,,,,,,,,,,,,,,,,,,,,,,,,,,,,,,,,,,,,,,,,,,,,,,,,,,,,,,,,,
1605155869.208377,92.000000,0.000000,4233.077148,4189.102539,4119.358887,4171.538574,4090.512939,4184.102539,4203.461426,4196.666504,4269.615234,4240.897461,4411.666504,4187.179688,4183.461426,4199.871582,11865.000000,4.000000,,,,0.000000,4.000000,4.000000,4.000000,4.000000,4.000000,4.000000,4.000000,4.000000,4.000000,4.000000,4.000000,4.000000,4.000000,4.000000,100.000000,,,,,,,,,,,,,,,,,,,,,,,,,,,,,,,,,,,,,,,,,,,,,,,,,,,,,,,,,,,,,,,,,,,,,,
1605155869.216359,93.000000,0.000000,4239.102539,4208.461426,4130.000000,4190.769043,4099.615234,4186.922852,4212.563965,4200.512695,4278.974121,4251.666504,4458.717773,4200.256348,4192.563965,4222.307617,3163.000000,4.000000,,,,0.000000,4.000000,4.000000,4.000000,4.000000,4.000000,4.000000,4.000000,4.000000,4.000000,4.000000,4.000000,4.000000,4.000000,4.000000,100.000000,,,,,,,,,,,,,,,,,,,,,,,,,,,,,,,,,,,,,,,,,,,,,,,,,,,,,,,,,,,,,,,,,,,,,,
1605155869.224242,94.000000,0.000000,4230.384766,4224.230957,4139.102539,4196.282227,4102.179688,4184.102539,4216.410156,4202.820313,4277.307617,4247.179688,4495.769043,4195.641113,4201.282227,4226.794922,2825.000000,4.000000,,,,0.000000,4.000000,4.000000,4.000000,4.000000,4.000000,4.000000,4.000000,4.000000,4.000000,4.000000,4.000000,4.000000,4.000000,4.000000,100.000000,,,,,,,,,,,,,,,,,,,,,,,,,,,,,,,,,,,,,,,,,,,,,,,,,,,,,,,,,,,,,,,,,,,,,,
1605155869.232224,95.000000,0.000000,4228.974121,4204.615234,4125.512695,4172.436035,4108.717773,4184.230957,4216.282227,4200.256348,4275.000000,4241.666504,4462.948730,4182.307617,4196.410156,4205.000000,2738.000000,4.000000,,,,0.000000,4.000000,4.000000,4.000000,4.000000,4.000000,4.000000,4.000000,4.000000,4.000000,4.000000,4.000000,4.000000,4.000000,4.000000,100.000000,,,,,,,,,,,,,,,,,,,,,,,,,,,,,,,,,,,,,,,,,,,,,,,,,,,,,,,,,,,,,,,,,,,,,,
1605155869.240106,96.000000,0.000000,4231.922852,4187.563965,4120.384766,4170.512695,4119.102539,4193.589844,4217.051270,4206.538574,4284.230957,4263.717773,4467.563965,4188.846191,4206.410156,4198.077148,11865.000000,4.000000,,,,0.000000,4.000000,4.000000,4.000000,4.000000,4.000000,4.000000,4.000000,4.000000,4.000000,4.000000,4.000000,4.000000,4.000000,4.000000,100.000000,,,,,,,,,,,,,,,,,,,,,,,,,,,,,,,,,,,,,,,,,,,,,,,,,,,,,,,,,,,,,,,,,,,,,,
1605155869.248088,97.000000,0.000000,4233.205078,4202.563965,4139.615234,4203.333496,4114.615234,4196.538574,4217.563965,4212.692383,4286.794922,4277.436035,4512.051270,4195.512695,4211.410156,4204.230957,3163.000000,4.000000,,,,0.000000,4.000000,4.000000,4.000000,4.000000,4.000000,4.000000,4.000000,4.000000,4.000000,4.000000,4.000000,4.000000,4.000000,4.000000,100.000000,,,,,,,,,,,,,,,,,,,,,,,,,,,,,,,,,,,,,,,,,,,,,,,,,,,,,,,,,,,,,,,,,,,,,,
1605155869.256071,98.000000,0.000000,4233.205078,4214.743652,4144.615234,4211.538574,4101.794922,4186.153809,4217.692383,4204.358887,4278.589844,4255.897461,4491.153809,4183.589844,4197.179688,4197.820313,2825.000000,4.000000,,,,0.000000,4.000000,4.000000,4.000000,4.000000,4.000000,4.000000,4.000000,4.000000,4.000000,4.000000,4.000000,4.000000,4.000000,4.000000,100.000000,,,,,,,,,,,,,,,,,,,,,,,,,,,,,,,,,,,,,,,,,,,,,,,,,,,,,,,,,,,,,,,,,,,,,,
1605155869.263953,99.000000,0.000000,4222.307617,4200.384766,4130.512695,4187.307617,4096.794922,4187.692383,4216.922852,4198.589844,4278.205078,4243.333496,4437.563965,4180.256348,4192.307617,4197.051270,2738.000000,4.000000,,,,0.000000,4.000000,4.000000,4.000000,4.000000,4.000000,4.000000,4.000000,4.000000,4.000000,4.000000,4.000000,4.000000,4.000000,4.000000,100.000000,3.395849,2.652854,2.256253,1.840460,1.223347,1.536383,1.953984,1.763027,1.138005,1.052989,22.660332,3.371077,1.232877,0.637261,0.503128,1.013720,1.378320,1.224941,1.063494,0.858130,3.285513,0.512523,0.538363,0.337690,0.259088,1.100763,0.423631,0.159923,0.242554,0.264436,0.742737,0.256198,0.361473,0.238999,0.294005,0.275146,0.054474,0.156033,0.101067,0.122492,0.321958,0.145839,0.189396,0.161831,0.216555,2.547451,1.881271,3.423472,2.044434,1.138166,29.631092,17.317976,17.027569,9.213601,7.254705,1.614634,0.951079,0.819195,0.417305,0.422898,1.534806,1.601211,1.721491,1.012060,1.222349,1.223103,0.863343,1.042376,0.804078,0.555997
1605155869.271836,100.000000,0.000000,4203.205078,4190.897461,4127.563965,4181.410156,4099.230957,4199.102539,4217.051270,4202.179688,4281.282227,4257.820313,4439.487305,4189.102539,4199.615234,4210.384766,11865.000000,4.000000,,,,0.000000,4.000000,4.000000,4.000000,4.000000,4.000000,4.000000,4.000000,4.000000,4.000000,4.000000,4.000000,4.000000,4.000000,4.000000,100.000000,,,,,,,,,,,,,,,,,,,,,,,,,,,,,,,,,,,,,,,,,,,,,,,,,,,,,,,,,,,,,,,,,,,,,,
1605155869.279818,101.000000,0.000000,4197.692383,4195.000000,4136.153809,4197.307617,4099.358887,4193.974121,4216.922852,4202.307617,4280.641113,4267.051270,4469.615234,4192.179688,4210.384766,4215.897461,3163.000000,4.000000,,,,0.000000,4.000000,4.000000,4.000000,4.000000,4.000000,4.000000,4.000000,4.000000,4.000000,4.000000,4.000000,4.000000,4.000000,4.000000,100.000000,,,,,,,,,,,,,,,,,,,,,,,,,,,,,,,,,,,,,,,,,,,,,,,,,,,,,,,,,,,,,,,,,,,,,,
1605155869.287700,102.000000,0.000000,4207.051270,4189.102539,4137.307617,4196.025879,4098.846191,4184.230957,4217.307617,4205.256348,4280.897461,4265.512695,4475.512695,4190.256348,4214.230957,4214.102539,2825.000000,4.000000,,,,0.000000,4.000000,4.000000,4.000000,4.000000,4.000000,4.000000,4.000000,4.000000,4.000000,4.000000,4.000000,4.000000,4.000000,4.000000,100.000000,,,,,,,,,,,,,,,,,,,,,,,,,,,,,,,,,,,,,,,,,,,,,,,,,,,,,,,,,,,,,,,,,,,,,,
1605155869.295482,103.000000,0.000000,4210.641113,4189.487305,4136.025879,4193.846191,4098.589844,4193.205078,4220.641113,4210.384766,4281.153809,4256.794922,4465.384766,4190.256348,4204.487305,4216.153809,2738.000000,4.000000,,,,0.000000,4.000000,4.000000,4.000000,4.000000,4.000000,4.000000,4.000000,4.000000,4.000000,4.000000,4.000000,4.000000,4.000000,4.000000,100.000000,,,,,,,,,,,,,,,,,,,,,,,,,,,,,,,,,,,,,,,,,,,,,,,,,,,,,,,,,,,,,,,,,,,,,,
1605155869.303364,104.000000,0.000000,4202.051270,4204.871582,4142.948730,4228.717773,4096.538574,4201.666504,4217.692383,4205.128418,4277.179688,4245.000000,4463.846191,4191.666504,4196.538574,4215.897461,11865.000000,4.000000,,,,0.000000,4.000000,4.000000,4.000000,4.000000,4.000000,4.000000,4.000000,4.000000,4.000000,4.000000,4.000000,4.000000,4.000000,4.000000,100.000000,,,,,,,,,,,,,,,,,,,,,,,,,,,,,,,,,,,,,,,,,,,,,,,,,,,,,,,,,,,,,,,,,,,,,,
1605155869.311147,105.000000,0.000000,4197.436035,4203.205078,4156.153809,4271.410156,4097.820313,4193.974121,4216.410156,4205.256348,4280.769043,4253.974121,4502.051270,4198.333496,4203.077148,4215.897461,3163.000000,4.000000,,,,0.000000,4.000000,4.000000,4.000000,4.000000,4.000000,4.000000,4.000000,4.000000,4.000000,4.000000,4.000000,4.000000,4.000000,4.000000,100.000000,,,,,,,,,,,,,,,,,,,,,,,,,,,,,,,,,,,,,,,,,,,,,,,,,,,,,,,,,,,,,,,,,,,,,,
1605155869.319129,106.000000,0.000000,4207.179688,4191.025879,4164.230957,4276.025879,4105.256348,4186.666504,4225.000000,4215.000000,4291.153809,4268.333496,4534.487305,4202.692383,4211.282227,4216.666504,2825.000000,4.000000,,,,0.000000,4.000000,4.000000,4.000000,4.000000,4.000000,4.000000,4.000000,4.000000,4.000000,4.000000,4.000000,4.000000,4.000000,4.000000,100.000000,,,,,,,,,,,,,,,,,,,,,,,,,,,,,,,,,,,,,,,,,,,,,,,,,,,,,,,,,,,,,,,,,,,,,,
1605155869.327011,107.000000,0.000000,4216.282227,4201.794922,4166.153809,4274.871582,4112.820313,4185.897461,4228.333496,4216.538574,4292.692383,4273.846191,4543.589844,4196.025879,4212.307617,4212.179688,2738.000000,4.000000,,,,0.000000,4.000000,4.000000,4.000000,4.000000,4.000000,4.000000,4.000000,4.000000,4.000000,4.000000,4.000000,4.000000,4.000000,4.000000,100.000000,,,,,,,,,,,,,,,,,,,,,,,,,,,,,,,,,,,,,,,,,,,,,,,,,,,,,,,,,,,,,,,,,,,,,,
1605155869.334993,108.000000,0.000000,4215.897461,4216.666504,4174.230957,4306.025879,4113.205078,4186.922852,4220.000000,4212.307617,4287.692383,4285.641113,4569.871582,4193.589844,4212.820313,4210.256348,11865.000000,4.000000,,,,0.000000,4.000000,4.000000,4.000000,4.000000,4.000000,4.000000,4.000000,4.000000,4.000000,4.000000,4.000000,4.000000,4.000000,4.000000,100.000000,,,,,,,,,,,,,,,,,,,,,,,,,,,,,,,,,,,,,,,,,,,,,,,,,,,,,,,,,,,,,,,,,,,,,,
1605155869.342876,109.000000,0.000000,4214.358887,4211.410156,4181.538574,4328.077148,4110.384766,4191.282227,4215.000000,4211.794922,4281.666504,4285.512695,4574.743652,4196.410156,4211.282227,4212.436035,3163.000000,4.000000,,,,0.000000,4.000000,4.000000,4.000000,4.000000,4.000000,4.000000,4.000000,4.000000,4.000000,4.000000,4.000000,4.000000,4.000000,4.000000,100.000000,,,,,,,,,,,,,,,,,,,,,,,,,,,,,,,,,,,,,,,,,,,,,,,,,,,,,,,,,,,,,,,,,,,,,,
1605155869.350858,110.000000,0.000000,4218.846191,4208.205078,4185.897461,4332.307617,4112.948730,4197.948730,4223.461426,4213.077148,4284.102539,4272.307617,4562.820313,4196.025879,4210.641113,4212.820313,2825.000000,4.000000,,,,0.000000,4.000000,4.000000,4.000000,4.000000,4.000000,4.000000,4.000000,4.000000,4.000000,4.000000,4.000000,4.000000,4.000000,4.000000,100.000000,,,,,,,,,,,,,,,,,,,,,,,,,,,,,,,,,,,,,,,,,,,,,,,,,,,,,,,,,,,,,,,,,,,,,,
1605155869.358740,111.000000,0.000000,4224.230957,4200.512695,4192.692383,4346.025879,4122.436035,4201.153809,4231.282227,4217.179688,4289.743652,4276.922852,4587.948730,4198.461426,4208.589844,4208.974121,2738.000000,4.000000,,,,0.000000,4.000000,4.000000,4.000000,4.000000,4.000000,4.000000,4.000000,4.000000,4.000000,4.000000,4.000000,4.000000,4.000000,4.000000,100.000000,,,,,,,,,,,,,,,,,,,,,,,,,,,,,,,,,,,,,,,,,,,,,,,,,,,,,,,,,,,,,,,,,,,,,,
1605155869.366723,112.000000,0.000000,4232.307617,4183.333496,4194.871582,4352.820313,4125.641113,4196.153809,4225.000000,4216.025879,4286.922852,4287.692383,4604.230957,4200.769043,4216.282227,4207.692383,11865.000000,4.000000,,,,0.000000,4.000000,4.000000,4.000000,4.000000,4.000000,4.000000,4.000000,4.000000,4.000000,4.000000,4.000000,4.000000,4.000000,4.000000,100.000000,,,,,,,,,,,,,,,,,,,,,,,,,,,,,,,,,,,,,,,,,,,,,,,,,,,,,,,,,,,,,,,,,,,,,,
1605155869.374605,113.000000,0.000000,4236.538574,4190.897461,4194.743652,4354.230957,4117.436035,4194.230957,4214.615234,4205.256348,4282.820313,4283.461426,4600.769043,4200.384766,4236.282227,4215.512695,3163.000000,4.000000,,,,0.000000,4.000000,4.000000,4.000000,4.000000,4.000000,4.000000,4.000000,4.000000,4.000000,4.000000,4.000000,4.000000,4.000000,4.000000,100.000000,,,,,,,,,,,,,,,,,,,,,,,,,,,,,,,,,,,,,,,,,,,,,,,,,,,,,,,,,,,,,,,,,,,,,,
1605155869.382587,114.000000,0.000000,4211.410156,4217.307617,4199.102539,4376.538574,4110.000000,4192.820313,4213.717773,4200.256348,4281.410156,4271.153809,4601.666504,4202.563965,4229.102539,4222.563965,2825.000000,4.000000,,,,0.000000,4.000000,4.000000,4.000000,4.000000,4.000000,4.000000,4.000000,4.000000,4.000000,4.000000,4.000000,4.000000,4.000000,4.000000,100.000000,,,,,,,,,,,,,,,,,,,,,,,,,,,,,,,,,,,,,,,,,,,,,,,,,,,,,,,,,,,,,,,,,,,,,,
1605155869.390470,115.000000,0.000000,4174.230957,4222.563965,4199.487305,4400.512695,4105.897461,4186.794922,4215.641113,4203.333496,4279.871582,4260.384766,4585.897461,4203.846191,4196.025879,4220.641113,2738.000000,4.000000,,,,0.000000,4.000000,4.000000,4.000000,4.000000,4.000000,4.000000,4.000000,4.000000,4.000000,4.000000,4.000000,4.000000,4.000000,4.000000,100.000000,3.604656,2.830095,1.926651,1.539998,1.234335,1.787329,1.871570,1.580392,1.537408,1.075211,17.462662,2.708306,1.140378,0.638361,0.519982,1.200351,1.226214,1.077567,1.438451,0.991544,3.889022,0.631996,0.523565,0.314820,0.272155,0.884532,0.449894,0.171122,0.279466,0.286398,0.721704,0.289406,0.364809,0.299297,0.314568,0.206416,0.064065,0.132358,0.106474,0.120598,0.310059,0.160664,0.168448,0.167406,0.251383,2.979727,2.048349,2.962414,1.934599,1.393127,35.617554,17.481113,14.586718,10.284793,7.724841,1.758502,1.482653,0.798812,0.446711,0.428766,1.809863,1.515406,1.584298,1.040617,1.193663,1.175601,1.024427,0.928085,0.835761,0.549633
1605155869.398452,116.000000,0.000000,4174.743652,4210.512695,4200.128418,4400.769043,4111.282227,4192.692383,4218.333496,4208.333496,4283.717773,4264.230957,4576.666504,4201.794922,4201.666504,4219.871582,11865.000000,4.000000,,,,0.000000,4.000000,4.000000,4.000000,4.000000,4.000000,4.000000,4.000000,4.000000,4.000000,4.000000,4.000000,4.000000,4.000000,4.000000,100.000000,,,,,,,,,,,,,,,,,,,,,,,,,,,,,,,,,,,,,,,,,,,,,,,,,,,,,,,,,,,,,,,,,,,,,,
1605155869.406334,117.000000,0.000000,4203.333496,4212.692383,4210.128418,4399.487305,4122.563965,4200.128418,4224.487305,4211.794922,4293.461426,4282.179688,4626.922852,4206.794922,4237.179688,4233.589844,3163.000000,4.000000,,,,0.000000,4.000000,4.000000,4.000000,4.000000,4.000000,4.000000,4.000000,4.000000,4.000000,4.000000,4.000000,4.000000,4.000000,4.000000,100.000000,,,,,,,,,,,,,,,,,,,,,,,,,,,,,,,,,,,,,,,,,,,,,,,,,,,,,,,,,,,,,,,,,,,,,,
1605155869.414316,118.000000,0.000000,4202.820313,4219.102539,4212.307617,4409.102539,4121.538574,4195.384766,4223.333496,4208.461426,4288.974121,4286.794922,4642.563965,4207.692383,4233.077148,4237.307617,2825.000000,4.000000,,,,0.000000,4.000000,4.000000,4.000000,4.000000,4.000000,4.000000,4.000000,4.000000,4.000000,4.000000,4.000000,4.000000,4.000000,4.000000,100.000000,,,,,,,,,,,,,,,,,,,,,,,,,,,,,,,,,,,,,,,,,,,,,,,,,,,,,,,,,,,,,,,,,,,,,,
1605155869.422198,119.000000,0.000000,4188.589844,4206.410156,4207.692383,4421.794922,4112.820313,4189.743652,4214.487305,4200.897461,4276.794922,4275.769043,4588.974121,4196.410156,4205.384766,4218.589844,2738.000000,4.000000,,,,0.000000,4.000000,4.000000,4.000000,4.000000,4.000000,4.000000,4.000000,4.000000,4.000000,4.000000,4.000000,4.000000,4.000000,4.000000,100.000000,,,,,,,,,,,,,,,,,,,,,,,,,,,,,,,,,,,,,,,,,,,,,,,,,,,,,,,,,,,,,,,,,,,,,,
1605155869.430180,120.000000,0.000000,4211.282227,4199.102539,4227.307617,4438.589844,4114.230957,4189.615234,4217.051270,4203.077148,4283.205078,4278.717773,4598.077148,4198.077148,4211.666504,4216.410156,11865.000000,4.000000,,,,0.000000,4.000000,4.000000,4.000000,4.000000,4.000000,4.000000,4.000000,4.000000,4.000000,4.000000,4.000000,4.000000,4.000000,4.000000,100.000000,,,,,,,,,,,,,,,,,,,,,,,,,,,,,,,,,,,,,,,,,,,,,,,,,,,,,,,,,,,,,,,,,,,,,,
1605155869.438062,121.000000,0.000000,4230.769043,4212.692383,4248.077148,4448.846191,4116.025879,4187.307617,4226.794922,4208.846191,4295.128418,4289.871582,4654.743652,4205.256348,4230.128418,4229.230957,3163.000000,4.000000,,,,0.000000,4.000000,4.000000,4.000000,4.000000,4.000000,4.000000,4.000000,4.000000,4.000000,4.000000,4.000000,4.000000,4.000000,4.000000,100.000000,,,,,,,,,,,,,,,,,,,,,,,,,,,,,,,,,,,,,,,,,,,,,,,,,,,,,,,,,,,,,,,,,,,,,,
1605155869.445845,122.000000,0.000000,4207.692383,4228.077148,4238.461426,4461.153809,4111.922852,4188.077148,4224.743652,4204.230957,4291.666504,4284.102539,4644.102539,4194.102539,4223.077148,4225.256348,2825.000000,4.000000,,,,0.000000,4.000000,4.000000,4.000000,4.000000,4.000000,4.000000,4.000000,4.000000,4.000000,4.000000,4.000000,4.000000,4.000000,4.000000,100.000000,,,,,,,,,,,,,,,,,,,,,,,,,,,,,,,,,,,,,,,,,,,,,,,,,,,,,,,,,,,,,,,,,,,,,,
1605155869.453727,123.000000,0.000000,4187.051270,4224.230957,4222.307617,4466.538574,4109.743652,4187.563965,4215.256348,4198.333496,4280.128418,4266.666504,4590.641113,4181.025879,4210.256348,4214.487305,2738.000000,4.000000,,,,0.000000,4.000000,4.000000,4.000000,4.000000,4.000000,4.000000,4.000000,4.000000,4.000000,4.000000,4.000000,4.000000,4.000000,4.000000,100.000000,,,,,,,,,,,,,,,,,,,,,,,,,,,,,,,,,,,,,,,,,,,,,,,,,,,,,,,,,,,,,,,,,,,,,,
1605155869.461509,124.000000,0.000000,4196.922852,4212.307617,4221.538574,4456.922852,4106.922852,4186.410156,4214.230957,4198.333496,4278.461426,4267.563965,4574.230957,4176.794922,4207.179688,4209.871582,11865.000000,4.000000,,,,0.000000,4.000000,4.000000,4.000000,4.000000,4.000000,4.000000,4.000000,4.000000,4.000000,4.000000,4.000000,4.000000,4.000000,4.000000,100.000000,,,,,,,,,,,,,,,,,,,,,,,,,,,,,,,,,,,,,,,,,,,,,,,,,,,,,,,,,,,,,,,,,,,,,,
1605155869.469391,125.000000,0.000000,4207.307617,4214.358887,4227.820313,4462.563965,4109.487305,4195.384766,4219.358887,4202.307617,4281.538574,4269.102539,4582.948730,4175.128418,4202.692383,4206.153809,3163.000000,4.000000,,,,0.000000,4.000000,4.000000,4.000000,4.000000,4.000000,4.000000,4.000000,4.000000,4.000000,4.000000,4.000000,4.000000,4.000000,4.000000,100.000000,,,,,,,,,,,,,,,,,,,,,,,,,,,,,,,,,,,,,,,,,,,,,,,,,,,,,,,,,,,,,,,,,,,,,,
1605155869.477173,126.000000,0.000000,4210.000000,4217.563965,4231.025879,4478.974121,4112.051270,4189.871582,4215.769043,4199.743652,4276.538574,4248.846191,4579.230957,4176.666504,4203.846191,4211.025879,2825.000000,4.000000,,,,0.000000,4.000000,4.000000,4.000000,4.000000,4.000000,4.000000,4.000000,4.000000,4.000000,4.000000,4.000000,4.000000,4.000000,4.000000,100.000000,,,,,,,,,,,,,,,,,,,,,,,,,,,,,,,,,,,,,,,,,,,,,,,,,,,,,,,,,,,,,,,,,,,,,,
1605155869.485156,127.000000,0.000000,4217.436035,4208.461426,4231.794922,4482.179688,4106.282227,4183.846191,4212.692383,4196.410156,4275.000000,4246.538574,4582.692383,4183.077148,4216.922852,4219.230957,54.000000,4.000000,,,,0.000000,4.000000,4.000000,4.000000,4.000000,4.000000,4.000000,4.000000,4.000000,4.000000,4.000000,4.000000,4.000000,4.000000,4.000000,100.000000,,,,,,,,,,,,,,,,,,,,,,,,,,,,,,,,,,,,,,,,,,,,,,,,,,,,,,,,,,,,,,,,,,,,,,
1605155869.493038,0.000000,0.000000,4222.051270,4217.692383,4239.743652,4497.307617,4107.692383,4198.077148,4225.512695,4206.025879,4284.230957,4267.179688,4616.794922,4189.487305,4216.282227,4214.871582,2964.000000,4.000000,,,,0.000000,4.000000,4.000000,4.000000,4.000000,4.000000,4.000000,4.000000,4.000000,4.000000,4.000000,4.000000,4.000000,4.000000,4.000000,100.000000,,,,,,,,,,,,,,,,,,,,,,,,,,,,,,,,,,,,,,,,,,,,,,,,,,,,,,,,,,,,,,,,,,,,,,
1605155869.500920,1.000000,0.000000,4230.000000,4256.538574,4261.025879,4529.871582,4120.769043,4197.820313,4235.897461,4217.179688,4293.717773,4287.179688,4680.256348,4197.820313,4207.948730,4220.769043,3120.000000,4.000000,,,,0.000000,4.000000,4.000000,4.000000,4.000000,4.000000,4.000000,4.000000,4.000000,4.000000,4.000000,4.000000,4.000000,4.000000,4.000000,100.000000,,,,,,,,,,,,,,,,,,,,,,,,,,,,,,,,,,,,,,,,,,,,,,,,,,,,,,,,,,,,,,,,,,,,,,
1605155869.508703,2.000000,0.000000,4239.230957,4256.794922,4270.769043,4531.538574,4122.436035,4186.922852,4234.743652,4218.846191,4291.410156,4297.179688,4724.615234,4207.179688,4212.179688,4231.538574,2585.000000,4.000000,,,,0.000000,4.000000,4.000000,4.000000,4.000000,4.000000,4.000000,4.000000,4.000000,4.000000,4.000000,4.000000,4.000000,4.000000,4.000000,100.000000,,,,,,,,,,,,,,,,,,,,,,,,,,,,,,,,,,,,,,,,,,,,,,,,,,,,,,,,,,,,,,,,,,,,,,
1605155869.516685,3.000000,0.000000,4236.153809,4213.461426,4257.179688,4512.051270,4112.820313,4197.820313,4232.692383,4214.615234,4285.384766,4281.666504,4687.820313,4202.051270,4214.615234,4222.820313,3257.000000,4.000000,,,,0.000000,4.000000,4.000000,4.000000,4.000000,4.000000,4.000000,4.000000,4.000000,4.000000,4.000000,4.000000,4.000000,4.000000,4.000000,100.000000,4.085232,3.089430,1.564066,1.271688,1.209475,2.093172,1.692456,1.357353,1.936327,1.155493,12.550709,2.392284,1.067410,0.649944,0.528838,1.541971,1.100972,0.949487,1.793241,1.180112,4.666740,0.788096,0.502158,0.306850,0.285076,0.676543,0.479328,0.166093,0.313265,0.303263,0.701647,0.315017,0.342550,0.359342,0.323892,0.174913,0.075269,0.108836,0.114224,0.118704,0.318632,0.180244,0.146440,0.175655,0.283165,3.620420,2.115864,2.354549,1.813103,1.626041,42.579369,17.711805,12.752997,11.149410,8.167040,1.955871,2.064131,0.824061,0.462992,0.426211,2.157811,1.346913,1.485286,1.037227,1.149148,1.174255,1.185598,0.795185,0.821247,0.545855
1605155869.524567,4.000000,0.000000,4232.307617,4210.256348,4252.179688,4520.256348,4109.358887,4203.333496,4228.846191,4209.615234,4287.051270,4262.563965,4644.615234,4191.153809,4208.717773,4216.282227,3267.000000,4.000000,,,,0.000000,4.000000,4.000000,4.000000,4.000000,4.000000,4.000000,4.000000,4.000000,4.000000,4.000000,4.000000,4.000000,4.000000,4.000000,100.000000,,,,,,,,,,,,,,,,,,,,,,,,,,,,,,,,,,,,,,,,,,,,,,,,,,,,,,,,,,,,,,,,,,,,,,
1605155869.532549,5.000000,0.000000,4226.410156,4233.717773,4254.743652,4528.461426,4108.205078,4187.820313,4220.512695,4202.692383,4286.025879,4264.487305,4633.205078,4184.358887,4198.974121,4216.282227,2168.000000,4.000000,,,,0.000000,4.000000,4.000000,4.000000,4.000000,4.000000,4.000000,4.000000,4.000000,4.000000,4.000000,4.000000,4.000000,4.000000,4.000000,100.000000,,,,,,,,,,,,,,,,,,,,,,,,,,,,,,,,,,,,,,,,,,,,,,,,,,,,,,,,,,,,,,,,,,,,,,
1605155869.540432,6.000000,0.000000,4213.717773,4220.384766,4243.333496,4508.461426,4103.333496,4189.871582,4221.025879,4202.563965,4275.897461,4261.794922,4597.436035,4178.205078,4187.692383,4208.461426,2728.000000,4.000000,,,,0.000000,4.000000,4.000000,4.000000,4.000000,4.000000,4.000000,4.000000,4.000000,4.000000,4.000000,4.000000,4.000000,4.000000,4.000000,100.000000,,,,,,,,,,,,,,,,,,,,,,,,,,,,,,,,,,,,,,,,,,,,,,,,,,,,,,,,,,,,,,,,,,,,,,
1605155869.548414,7.000000,0.000000,4218.461426,4199.871582,4245.384766,4506.410156,4103.846191,4201.922852,4230.769043,4213.846191,4278.846191,4260.512695,4588.333496,4182.948730,4198.846191,4211.153809,2436.000000,4.000000,,,,0.000000,4.000000,4.000000,4.000000,4.000000,4.000000,4.000000,4.000000,4.000000,4.000000,4.000000,4.000000,4.000000,4.000000,4.000000,100.000000,,,,,,,,,,,,,,,,,,,,,,,,,,,,,,,,,,,,,,,,,,,,,,,,,,,,,,,,,,,,,,,,,,,,,,
1605155869.556396,8.000000,0.000000,4238.589844,4210.128418,4262.179688,4527.307617,4106.922852,4199.358887,4232.563965,4219.743652,4291.922852,4273.717773,4646.282227,4196.025879,4215.128418,4227.563965,2755.000000,4.000000,,,,0.000000,4.000000,4.000000,4.000000,4.000000,4.000000,4.000000,4.000000,4.000000,4.000000,4.000000,4.000000,4.000000,4.000000,4.000000,100.000000,,,,,,,,,,,,,,,,,,,,,,,,,,,,,,,,,,,,,,,,,,,,,,,,,,,,,,,,,,,,,,,,,,,,,,
1605155869.564279,9.000000,0.000000,4235.128418,4223.846191,4259.743652,4530.641113,4110.641113,4196.794922,4232.820313,4218.333496,4293.717773,4280.128418,4676.282227,4204.487305,4203.205078,4234.487305,4188.000000,4.000000,,,,0.000000,4.000000,4.000000,4.000000,4.000000,4.000000,4.000000,4.000000,4.000000,4.000000,4.000000,4.000000,4.000000,4.000000,4.000000,100.000000,,,,,,,,,,,,,,,,,,,,,,,,,,,,,,,,,,,,,,,,,,,,,,,,,,,,,,,,,,,,,,,,,,,,,,
1605155869.572261,10.000000,0.000000,4228.205078,4207.948730,4250.256348,4515.769043,4108.717773,4198.333496,4236.666504,4215.000000,4289.230957,4279.743652,4654.615234,4201.666504,4192.051270,4231.538574,2834.000000,4.000000,,,,0.000000,4.000000,4.000000,4.000000,4.000000,4.000000,4.000000,4.000000,4.000000,4.000000,4.000000,4.000000,4.000000,4.000000,4.000000,100.000000,,,,,,,,,,,,,,,,,,,,,,,,,,,,,,,,,,,,,,,,,,,,,,,,,,,,,,,,,,,,,,,,,,,,,,
1605155869.580144,11.000000,0.000000,4254.743652,4196.282227,4258.589844,4519.615234,4098.846191,4198.846191,4239.487305,4217.820313,4293.717773,4285.000000,4667.436035,4201.794922,4206.282227,4232.179688,2499.000000,4.000000,,,,0.000000,4.000000,4.000000,4.000000,4.000000,4.000000,4.000000,4.000000,4.000000,4.000000,4.000000,4.000000,4.000000,4.000000,4.000000,100.000000,,,,,,,,,,,,,,,,,,,,,,,,,,,,,,,,,,,,,,,,,,,,,,,,,,,,,,,,,,,,,,,,,,,,,,
1605155869.588027,12.000000,0.000000,4268.846191,4224.743652,4267.307617,4535.641113,4098.974121,4200.384766,4245.897461,4225.512695,4298.974121,4294.871582,4715.384766,4212.820313,4217.948730,4233.717773,11707.000000,4.000000,,,,0.000000,4.000000,4.000000,4.000000,4.000000,4.000000,4.000000,4.000000,4.000000,4.000000,4.000000,4.000000,4.000000,4.000000,4.000000,100.000000,,,,,,,,,,,,,,,,,,,,,,,,,,,,,,,,,,,,,,,,,,,,,,,,,,,,,,,,,,,,,,,,,,,,,,
1605155869.596010,13.000000,1.000000,4262.765625,4223.003906,4264.780273,4535.769043,4087.051270,4199.944824,4243.681152,4224.505371,4297.143066,4287.747070,4692.820313,4210.256348,4209.432129,4232.710449,3163.000000,4.000000,,,,0.000000,4.000000,4.000000,4.000000,4.000000,4.000000,4.000000,4.000000,4.000000,4.000000,4.000000,4.000000,4.000000,4.000000,4.000000,100.000000,,,,,,,,,,,,,,,,,,,,,,,,,,,,,,,,,,,,,,,,,,,,,,,,,,,,,,,,,,,,,,,,,,,,,,
1605155869.603895,14.000000,1.000000,4256.685059,4221.263672,4262.252930,4535.897461,4075.128174,4199.505371,4241.465332,4223.498047,4295.311523,4280.622559,4670.256348,4207.692383,4200.915527,4231.703125,2825.000000,4.000000,,,,0.000000,4.000000,4.000000,4.000000,4.000000,4.000000,4.000000,4.000000,4.000000,4.000000,4.000000,4.000000,4.000000,4.000000,4.000000,100.000000,,,,,,,,,,,,,,,,,,,,,,,,,,,,,,,,,,,,,,,,,,,,,,,,,,,,,,,,,,,,,,,,,,,,,,
1605155869.611779,15.000000,1.000000,4250.604492,4219.523926,4259.725098,4536.025879,4063.205078,4199.065918,4239.249023,4222.490723,4293.479980,4273.498047,4647.692383,4205.128418,4192.399414,4230.695801,2738.000000,4.000000,,,,0.000000,4.000000,4.000000,4.000000,4.000000,4.000000,4.000000,4.000000,4.000000,4.000000,4.000000,4.000000,4.000000,4.000000,4.000000,100.000000,,,,,,,,,,,,,,,,,,,,,,,,,,,,,,,,,,,,,,,,,,,,,,,,,,,,,,,,,,,,,,,,,,,,,,
1605155869.619663,16.000000,1.000000,4244.523926,4217.783691,4257.197754,4536.153809,4051.281982,4198.626465,4237.033203,4221.483398,4291.648438,4266.373535,4625.128418,4202.563965,4183.882813,4229.688477,5017.285645,4.000000,,,,0.000000,4.000000,4.000000,4.000000,4.000000,4.000000,4.000000,4.000000,4.000000,4.000000,4.000000,4.000000,4.000000,4.000000,4.000000,100.000000,,,,,,,,,,,,,,,,,,,,,,,,,,,,,,,,,,,,,,,,,,,,,,,,,,,,,,,,,,,,,,,,,,,,,,
1605155869.627547,17.000000,1.000000,4238.443359,4216.043945,4254.670410,4536.282227,4039.358887,4198.187012,4234.816895,4220.476074,4289.816895,4259.249023,4602.563965,4200.000000,4175.366211,4228.681152,3344.857178,4.000000,,,,0.000000,4.000000,4.000000,4.000000,4.000000,4.000000,4.000000,4.000000,4.000000,4.000000,4.000000,4.000000,4.000000,4.000000,4.000000,100.000000,,,,,,,,,,,,,,,,,,,,,,,,,,,,,,,,,,,,,,,,,,,,,,,,,,,,,,,,,,,,,,,,,,,,,,
1605155869.635431,18.000000,1.000000,4232.362793,4214.304199,4252.143066,4536.410156,4027.435791,4197.747070,4232.600586,4219.468750,4287.985352,4252.124512,4580.000000,4197.436035,4166.849609,4227.673828,1672.428589,4.000000,,,,0.000000,4.000000,4.000000,4.000000,4.000000,4.000000,4.000000,4.000000,4.000000,4.000000,4.000000,4.000000,4.000000,4.000000,4.000000,100.000000,,,,,,,,,,,,,,,,,,,,,,,,,,,,,,,,,,,,,,,,,,,,,,,,,,,,,,,,,,,,,,,,,,,,,,
1605155869.643315,19.000000,0.000000,4226.282227,4212.563965,4249.615234,4536.538574,4015.512939,4197.307617,4230.384766,4218.461426,4286.153809,4245.000000,4557.436035,4194.871582,4158.333496,4226.666504,0.000000,4.000000,,,,0.000000,4.000000,4.000000,4.000000,4.000000,4.000000,4.000000,4.000000,4.000000,4.000000,4.000000,4.000000,4.000000,4.000000,4.000000,100.000000,4.468332,3.421567,1.279617,1.129268,1.161127,2.321807,1.452895,1.160087,2.230117,1.272915,8.462519,2.278220,1.008075,0.656541,0.538007,1.906374,1.026213,0.874717,2.035275,1.403105,5.473147,0.943955,0.474864,0.321782,0.295307,0.516581,0.484163,0.148246,0.334113,0.312594,0.728304,0.323489,0.306211,0.401734,0.321353,0.185239,0.091455,0.093908,0.120963,0.117591,0.369898,0.208553,0.131614,0.186332,0.304118,4.312012,2.074913,1.800656,1.707797,1.780572,47.119003,17.802256,12.164907,11.552759,8.474783,2.088629,2.562502,0.914540,0.459451,0.412483,2.371046,1.139941,1.475269,1.002718,1.097827,1.113535,1.313682,0.686692,0.776876,0.537703
1605155869.651199,20.000000,0.000000,4227.307617,4227.948730,4261.410156,4547.820313,4020.512939,4203.205078,4234.230957,4221.282227,4297.563965,4264.615234,4597.820313,4202.820313,4170.000000,4225.897461,0.000000,4.000000,,,,0.000000,4.000000,4.000000,4.000000,4.000000,4.000000,4.000000,4.000000,4.000000,4.000000,4.000000,4.000000,4.000000,4.000000,4.000000,100.000000,,,,,,,,,,,,,,,,,,,,,,,,,,,,,,,,,,,,,,,,,,,,,,,,,,,,,,,,,,,,,,,,,,,,,,
1605155869.659083,21.000000,0.000000,4226.153809,4241.282227,4272.179688,4573.717773,4018.974365,4202.179688,4232.692383,4219.615234,4297.179688,4276.025879,4646.922852,4216.538574,4172.692383,4243.717773,0.000000,4.000000,,,,0.000000,4.000000,4.000000,4.000000,4.000000,4.000000,4.000000,4.000000,4.000000,4.000000,4.000000,4.000000,4.000000,4.000000,4.000000,100.000000,,,,,,,,,,,,,,,,,,,,,,,,,,,,,,,,,,,,,,,,,,,,,,,,,,,,,,,,,,,,,,,,,,,,,,
1605155869.666967,22.000000,0.000000,4219.230957,4242.179688,4274.230957,4571.153809,4019.230713,4201.410156,4234.487305,4217.307617,4296.025879,4278.077148,4659.102539,4222.179688,4166.794922,4255.897461,0.000000,4.000000,,,,0.000000,4.000000,4.000000,4.000000,4.000000,4.000000,4.000000,4.000000,4.000000,4.000000,4.000000,4.000000,4.000000,4.000000,4.000000,100.000000,,,,,,,,,,,,,,,,,,,,,,,,,,,,,,,,,,,,,,,,,,,,,,,,,,,,,,,,,,,,,,,,,,,,,,
1605155869.674748,23.000000,0.000000,4201.922852,4235.512695,4261.794922,4546.410156,4014.871826,4202.179688,4233.589844,4217.307617,4293.846191,4279.102539,4632.051270,4210.512695,4171.282227,4241.410156,0.000000,4.000000,,,,0.000000,4.000000,4.000000,4.000000,4.000000,4.000000,4.000000,4.000000,4.000000,4.000000,4.000000,4.000000,4.000000,4.000000,4.000000,100.000000,,,,,,,,,,,,,,,,,,,,,,,,,,,,,,,,,,,,,,,,,,,,,,,,,,,,,,,,,,,,,,,,,,,,,,
1605155869.682630,24.000000,0.000000,4192.948730,4219.871582,4250.384766,4543.589844,3997.820557,4202.179688,4229.487305,4216.153809,4285.641113,4261.794922,4574.743652,4198.333496,4167.436035,4232.692383,0.000000,4.000000,,,,0.000000,4.000000,4.000000,4.000000,4.000000,4.000000,4.000000,4.000000,4.000000,4.000000,4.000000,4.000000,4.000000,4.000000,4.000000,100.000000,,,,,,,,,,,,,,,,,,,,,,,,,,,,,,,,,,,,,,,,,,,,,,,,,,,,,,,,,,,,,,,,,,,,,,
1605155869.690411,25.000000,0.000000,4209.615234,4225.512695,4260.769043,4566.666504,3994.743652,4197.820313,4232.563965,4217.051270,4289.230957,4253.333496,4579.487305,4206.794922,4150.769043,4245.256348,0.000000,4.000000,,,,0.000000,4.000000,4.000000,4.000000,4.000000,4.000000,4.000000,4.000000,4.000000,4.000000,4.000000,4.000000,4.000000,4.000000,4.000000,100.000000,,,,,,,,,,,,,,,,,,,,,,,,,,,,,,,,,,,,,,,,,,,,,,,,,,,,,,,,,,,,,,,,,,,,,,
1605155869.698193,26.000000,0.000000,4211.666504,4250.128418,4272.563965,4575.641113,4006.666748,4190.641113,4236.025879,4218.974121,4298.974121,4270.000000,4626.025879,4218.077148,4148.589844,4248.461426,0.000000,4.000000,,,,0.000000,4.000000,4.000000,4.000000,4.000000,4.000000,4.000000,4.000000,4.000000,4.000000,4.000000,4.000000,4.000000,4.000000,4.000000,100.000000,,,,,,,,,,,,,,,,,,,,,,,,,,,,,,,,,,,,,,,,,,,,,,,,,,,,,,,,,,,,,,,,,,,,,,
1605155869.706075,27.000000,0.000000,4196.538574,4247.307617,4264.615234,4556.922852,4007.307617,4191.666504,4233.077148,4217.307617,4296.410156,4271.666504,4617.051270,4214.615234,4163.717773,4242.307617,0.000000,4.000000,,,,0.000000,4.000000,4.000000,4.000000,4.000000,4.000000,4.000000,4.000000,4.000000,4.000000,4.000000,4.000000,4.000000,4.000000,4.000000,100.000000,,,,,,,,,,,,,,,,,,,,,,,,,,,,,,,,,,,,,,,,,,,,,,,,,,,,,,,,,,,,,,,,,,,,,,
1605155869.713857,28.000000,0.000000,4205.256348,4228.205078,4259.615234,4546.666504,4001.281982,4197.563965,4231.922852,4215.384766,4292.436035,4263.846191,4599.871582,4213.205078,4175.641113,4247.307617,0.000000,4.000000,,,,0.000000,4.000000,4.000000,4.000000,4.000000,4.000000,4.000000,4.000000,4.000000,4.000000,4.000000,4.000000,4.000000,4.000000,4.000000,100.000000,,,,,,,,,,,,,,,,,,,,,,,,,,,,,,,,,,,,,,,,,,,,,,,,,,,,,,,,,,,,,,,,,,,,,,
1605155869.721839,29.000000,0.000000,4218.846191,4229.102539,4266.282227,4560.769043,3993.461426,4197.692383,4230.769043,4213.974121,4294.230957,4264.230957,4600.641113,4213.974121,4157.307617,4249.743652,0.000000,4.000000,,,,0.000000,4.000000,4.000000,4.000000,4.000000,4.000000,4.000000,4.000000,4.000000,4.000000,4.000000,4.000000,4.000000,4.000000,4.000000,100.000000,,,,,,,,,,,,,,,,,,,,,,,,,,,,,,,,,,,,,,,,,,,,,,,,,,,,,,,,,,,,,,,,,,,,,,
1605155869.729722,30.000000,0.000000,4222.051270,4234.358887,4269.358887,4568.205078,3984.743652,4194.615234,4229.743652,4215.000000,4293.333496,4254.487305,4584.358887,4211.153809,4133.974121,4243.205078,0.000000,4.000000,,,,0.000000,4.000000,4.000000,4.000000,4.000000,4.000000,4.000000,4.000000,4.000000,4.000000,4.000000,4.000000,4.000000,4.000000,4.000000,100.000000,,,,,,,,,,,,,,,,,,,,,,,,,,,,,,,,,,,,,,,,,,,,,,,,,,,,,,,,,,,,,,,,,,,,,,
1605155869.737704,31.000000,0.000000,4234.102539,4229.358887,4265.897461,4549.871582,3983.974365,4190.897461,4228.461426,4216.025879,4287.436035,4245.512695,4578.077148,4212.051270,4145.512695,4242.051270,0.000000,4.000000,,,,0.000000,4.000000,4.000000,4.000000,4.000000,4.000000,4.000000,4.000000,4.000000,4.000000,4.000000,4.000000,4.000000,4.000000,4.000000,100.000000,,,,,,,,,,,,,,,,,,,,,,,,,,,,,,,,,,,,,,,,,,,,,,,,,,,,,,,,,,,,,,,,,,,,,,
1605155869.745586,32.000000,0.000000,4233.846191,4221.282227,4258.461426,4531.666504,3981.666748,4188.077148,4223.461426,4210.897461,4281.410156,4248.205078,4565.256348,4210.384766,4146.794922,4245.897461,0.000000,4.000000,,,,0.000000,4.000000,4.000000,4.000000,4.000000,4.000000,4.000000,4.000000,4.000000,4.000000,4.000000,4.000000,4.000000,4.000000,4.000000,100.000000,,,,,,,,,,,,,,,,,,,,,,,,,,,,,,,,,,,,,,,,,,,,,,,,,,,,,,,,,,,,,,,,,,,,,,
1605155869.753469,33.000000,0.000000,4218.589844,4219.487305,4251.153809,4532.563965,3971.666748,4186.282227,4223.077148,4208.717773,4278.333496,4236.794922,4518.205078,4207.436035,4118.846191,4253.077148,0.000000,4.000000,,,,0.000000,4.000000,4.000000,4.000000,4.000000,4.000000,4.000000,4.000000,4.000000,4.000000,4.000000,4.000000,4.000000,4.000000,4.000000,100.000000,,,,,,,,,,,,,,,,,,,,,,,,,,,,,,,,,,,,,,,,,,,,,,,,,,,,,,,,,,,,,,,,,,,,,,
1605155869.761351,34.000000,0.000000,4219.743652,4236.538574,4255.000000,4543.333496,3973.205078,4186.410156,4224.487305,4213.717773,4280.384766,4225.256348,4517.307617,4208.846191,4122.692383,4254.871582,0.000000,4.000000,,,,0.000000,4.000000,4.000000,4.000000,4.000000,4.000000,4.000000,4.000000,4.000000,4.000000,4.000000,4.000000,4.000000,4.000000,4.000000,100.000000,,,,,,,,,,,,,,,,,,,,,,,,,,,,,,,,,,,,,,,,,,,,,,,,,,,,,,,,,,,,,,,,,,,,,,
1605155869.769133,35.000000,0.000000,4230.128418,4232.436035,4260.384766,4544.487305,3975.000000,4187.179688,4218.846191,4214.230957,4279.230957,4230.256348,4534.743652,4204.230957,4145.641113,4241.922852,0.000000,4.000000,,,,0.000000,4.000000,4.000000,4.000000,4.000000,4.000000,4.000000,4.000000,4.000000,4.000000,4.000000,4.000000,4.000000,4.000000,4.000000,100.000000,4.590283,3.778689,1.162124,1.127220,1.102039,2.387020,1.209130,1.015407,2.343701,1.394711,6.002725,2.187473,0.949603,0.643108,0.551063,2.493621,1.046045,0.858212,2.110823,1.615522,5.875702,1.069104,0.442410,0.357375,0.298687,0.428364,0.449214,0.124889,0.336125,0.312216,0.776293,0.316562,0.270398,0.412801,0.308905,0.241859,0.117511,0.093407,0.125726,0.118139,0.452804,0.247895,0.129537,0.198242,0.310398,5.010347,1.966359,1.462934,1.642829,1.820065,49.605156,17.899818,12.984252,11.363915,8.558024,2.140517,2.850022,1.057078,0.435847,0.388272,2.482606,0.937350,1.552244,0.952833,1.055898,0.998751,1.394816,0.623375,0.721104,0.518710
1605155869.777015,36.000000,0.000000,4247.307617,4215.769043,4271.153809,4547.436035,3965.769287,4186.666504,4219.358887,4212.948730,4278.077148,4240.641113,4539.615234,4208.846191,4136.922852,4247.692383,0.000000,4.000000,,,,0.000000,4.000000,4.000000,4.000000,4.000000,4.000000,4.000000,4.000000,4.000000,4.000000,4.000000,4.000000,4.000000,4.000000,4.000000,100.000000,,,,,,,,,,,,,,,,,,,,,,,,,,,,,,,,,,,,,,,,,,,,,,,,,,,,,,,,,,,,,,,,,,,,,,
1605155869.784898,37.000000,0.000000,4265.256348,4242.820313,4284.102539,4562.179688,3970.512939,4185.769043,4231.410156,4217.307617,4283.205078,4250.897461,4588.846191,4232.820313,4137.051270,4274.102539,0.000000,4.000000,,,,0.000000,4.000000,4.000000,4.000000,4.000000,4.000000,4.000000,4.000000,4.000000,4.000000,4.000000,4.000000,4.000000,4.000000,4.000000,100.000000,,,,,,,,,,,,,,,,,,,,,,,,,,,,,,,,,,,,,,,,,,,,,,,,,,,,,,,,,,,,,,,,,,,,,,
1605155869.792781,38.000000,0.000000,4245.384766,4260.128418,4272.179688,4557.820313,3973.333252,4186.922852,4226.922852,4216.410156,4282.820313,4243.461426,4605.128418,4233.846191,4152.820313,4273.205078,0.000000,4.000000,,,,0.000000,4.000000,4.000000,4.000000,4.000000,4.000000,4.000000,4.000000,4.000000,4.000000,4.000000,4.000000,4.000000,4.000000,4.000000,100.000000,,,,,,,,,,,,,,,,,,,,,,,,,,,,,,,,,,,,,,,,,,,,,,,,,,,,,,,,,,,,,,,,,,,,,,
1605155869.800664,39.000000,0.000000,4217.436035,4236.153809,4255.897461,4539.102539,3964.358887,4185.897461,4214.615234,4210.512695,4277.051270,4225.000000,4532.692383,4212.820313,4136.410156,4254.230957,0.000000,4.000000,,,,0.000000,4.000000,4.000000,4.000000,4.000000,4.000000,4.000000,4.000000,4.000000,4.000000,4.000000,4.000000,4.000000,4.000000,4.000000,100.000000,,,,,,,,,,,,,,,,,,,,,,,,,,,,,,,,,,,,,,,,,,,,,,,,,,,,,,,,,,,,,,,,,,,,,,
1605155869.808547,40.000000,0.000000,4246.282227,4232.179688,4269.487305,4542.051270,3970.000000,4186.410156,4225.769043,4215.128418,4281.666504,4239.743652,4540.641113,4221.794922,4122.307617,4260.641113,0.000000,4.000000,,,,0.000000,4.000000,4.000000,4.000000,4.000000,4.000000,4.000000,4.000000,4.000000,4.000000,4.000000,4.000000,4.000000,4.000000,4.000000,100.000000,,,,,,,,,,,,,,,,,,,,,,,,,,,,,,,,,,,,,,,,,,,,,,,,,,,,,,,,,,,,,,,,,,,,,,
1605155869.816530,41.000000,0.000000,4282.692383,4239.358887,4285.384766,4549.230957,3980.384521,4188.333496,4234.487305,4219.358887,4287.179688,4264.615234,4618.589844,4242.307617,4139.743652,4272.307617,0.000000,4.000000,,,,0.000000,4.000000,4.000000,4.000000,4.000000,4.000000,4.000000,4.000000,4.000000,4.000000,4.000000,4.000000,4.000000,4.000000,4.000000,100.000000,,,,,,,,,,,,,,,,,,,,,,,,,,,,,,,,,,,,,,,,,,,,,,,,,,,,,,,,,,,,,,,,,,,,,,
1605155869.824412,42.000000,0.000000,4257.948730,4223.717773,4276.282227,4537.948730,3971.666748,4187.563965,4223.333496,4209.743652,4278.974121,4244.615234,4597.051270,4239.102539,4145.641113,4267.307617,0.000000,4.000000,,,,0.000000,4.000000,4.000000,4.000000,4.000000,4.000000,4.000000,4.000000,4.000000,4.000000,4.000000,4.000000,4.000000,4.000000,4.000000,100.000000,,,,,,,,,,,,,,,,,,,,,,,,,,,,,,,,,,,,,,,,,,,,,,,,,,,,,,,,,,,,,,,,,,,,,,
1605155869.832394,43.000000,0.000000,4225.512695,4223.974121,4267.436035,4533.589844,3960.384521,4189.102539,4213.717773,4202.307617,4274.487305,4216.922852,4526.025879,4229.358887,4136.538574,4261.410156,0.000000,4.000000,,,,0.000000,4.000000,4.000000,4.000000,4.000000,4.000000,4.000000,4.000000,4.000000,4.000000,4.000000,4.000000,4.000000,4.000000,4.000000,100.000000,,,,,,,,,,,,,,,,,,,,,,,,,,,,,,,,,,,,,,,,,,,,,,,,,,,,,,,,,,,,,,,,,,,,,,
1605155869.840277,44.000000,0.000000,4237.179688,4243.846191,4272.692383,4536.666504,3967.307617,4186.666504,4213.974121,4209.871582,4280.641113,4224.358887,4535.256348,4232.820313,4137.692383,4265.769043,0.000000,4.000000,,,,0.000000,4.000000,4.000000,4.000000,4.000000,4.000000,4.000000,4.000000,4.000000,4.000000,4.000000,4.000000,4.000000,4.000000,4.000000,100.000000,,,,,,,,,,,,,,,,,,,,,,,,,,,,,,,,,,,,,,,,,,,,,,,,,,,,,,,,,,,,,,,,,,,,,,
1605155869.848259,45.000000,0.000000,4246.153809,4250.769043,4276.794922,4539.615234,3981.410156,4181.538574,4215.256348,4217.307617,4281.282227,4238.846191,4579.358887,4238.333496,4143.589844,4266.538574,0.000000,4.000000,,,,0.000000,4.000000,4.000000,4.000000,4.000000,4.000000,4.000000,4.000000,4.000000,4.000000,4.000000,4.000000,4.000000,4.000000,4.000000,100.000000,,,,,,,,,,,,,,,,,,,,,,,,,,,,,,,,,,,,,,,,,,,,,,,,,,,,,,,,,,,,,,,,,,,,,,
1605155869.856141,46.000000,0.000000,4223.589844,4240.128418,4266.282227,4538.974121,3983.333252,4187.692383,4215.897461,4208.717773,4277.307617,4234.358887,4558.333496,4228.333496,4144.230957,4253.333496,0.000000,4.000000,,,,0.000000,4.000000,4.000000,4.000000,4.000000,4.000000,4.000000,4.000000,4.000000,4.000000,4.000000,4.000000,4.000000,4.000000,4.000000,100.000000,,,,,,,,,,,,,,,,,,,,,,,,,,,,,,,,,,,,,,,,,,,,,,,,,,,,,,,,,,,,,,,,,,,,,,
1605155869.864123,47.000000,0.000000,4219.102539,4223.974121,4257.820313,4527.948730,3975.256348,4192.436035,4214.487305,4203.461426,4276.666504,4224.487305,4512.051270,4216.410156,4145.641113,4251.666504,0.000000,4.000000,,,,0.000000,4.000000,4.000000,4.000000,4.000000,4.000000,4.000000,4.000000,4.000000,4.000000,4.000000,4.000000,4.000000,4.000000,4.000000,100.000000,,,,,,,,,,,,,,,,,,,,,,,,,,,,,,,,,,,,,,,,,,,,,,,,,,,,,,,,,,,,,,,,,,,,,,
1605155869.872005,48.000000,0.000000,4237.948730,4226.794922,4269.230957,4523.974121,3977.692383,4185.128418,4215.512695,4213.589844,4278.974121,4230.641113,4521.538574,4216.666504,4144.615234,4262.563965,0.000000,4.000000,,,,0.000000,4.000000,4.000000,4.000000,4.000000,4.000000,4.000000,4.000000,4.000000,4.000000,4.000000,4.000000,4.000000,4.000000,4.000000,100.000000,,,,,,,,,,,,,,,,,,,,,,,,,,,,,,,,,,,,,,,,,,,,,,,,,,,,,,,,,,,,,,,,,,,,,,
1605155869.879988,49.000000,1.000000,4234.358887,4230.705078,4267.179688,4526.346191,3985.534180,4188.354492,4217.884766,4213.931641,4281.175293,4236.089844,4533.632324,4216.410156,4146.666504,4260.256348,0.000000,4.000000,,,,0.000000,4.000000,4.000000,4.000000,4.000000,4.000000,4.000000,4.000000,4.000000,4.000000,4.000000,4.000000,4.000000,4.000000,4.000000,100.000000,,,,,,,,,,,,,,,,,,,,,,,,,,,,,,,,,,,,,,,,,,,,,,,,,,,,,,,,,,,,,,,,,,,,,,
1605155869.887871,50.000000,1.000000,4230.769043,4234.615234,4265.128418,4528.717773,3993.375977,4191.581055,4220.256348,4214.273438,4283.375977,4241.538574,4545.726563,4216.153809,4148.717773,4257.948730,0.000000,4.000000,,,,0.000000,4.000000,4.000000,4.000000,4.000000,4.000000,4.000000,4.000000,4.000000,4.000000,4.000000,4.000000,4.000000,4.000000,4.000000,100.000000,,,,,,,,,,,,,,,,,,,,,,,,,,,,,,,,,,,,,,,,,,,,,,,,,,,,,,,,,,,,,,,,,,,,,,
1605155869.895754,51.000000,1.000000,4227.179688,4238.525879,4263.077148,4531.089844,4001.218018,4194.807617,4222.628418,4214.615234,4285.577148,4246.987305,4557.820313,4215.897461,4150.769043,4255.641113,0.000000,4.000000,,,,0.000000,4.000000,4.000000,4.000000,4.000000,4.000000,4.000000,4.000000,4.000000,4.000000,4.000000,4.000000,4.000000,4.000000,4.000000,100.000000,4.380919,4.097881,1.260934,1.200515,1.040577,2.260805,1.013704,0.923695,2.264993,1.492293,4.351040,2.026343,0.911809,0.603226,0.564815,3.241900,1.178335,0.900459,2.024633,1.763207,6.123148,1.167951,0.408246,0.400794,0.291396,0.391152,0.375643,0.102933,0.318477,0.301302,0.835895,0.306213,0.249932,0.388694,0.289287,0.320154,0.155352,0.109036,0.129756,0.120440,0.540919,0.294550,0.144885,0.208841,0.302838,5.387058,1.864745,1.413876,1.611769,1.736344,48.349453,18.350763,15.076860,10.582212,8.350723,2.062999,2.864137,1.218956,0.397640,0.357252,2.385185,0.780666,1.663718,0.901956,1.033291,0.832486,1.433465,0.605236,0.664972,0.486271
1605155869.903637,52.000000,1.000000,4223.589844,4242.436035,4261.025879,4533.461426,4009.059814,4198.034180,4225.000000,4214.957031,4287.777832,4252.436035,4569.914551,4215.641113,4152.820313,4253.333496,0.000000,4.000000,,,,0.000000,4.000000,4.000000,4.000000,4.000000,4.000000,4.000000,4.000000,4.000000,4.000000,4.000000,4.000000,4.000000,4.000000,4.000000,100.000000,,,,,,,,,,,,,,,,,,,,,,,,,,,,,,,,,,,,,,,,,,,,,,,,,,,,,,,,,,,,,,,,,,,,,,
1605155869.911519,53.000000,1.000000,4220.000000,4246.346191,4258.974121,4535.833496,4016.901611,4201.260742,4227.371582,4215.299316,4289.978516,4257.884766,4582.008789,4215.384766,4154.871582,4251.025879,0.000000,4.000000,,,,0.000000,4.000000,4.000000,4.000000,4.000000,4.000000,4.000000,4.000000,4.000000,4.000000,4.000000,4.000000,4.000000,4.000000,4.000000,100.000000,,,,,,,,,,,,,,,,,,,,,,,,,,,,,,,,,,,,,,,,,,,,,,,,,,,,,,,,,,,,,,,,,,,,,,
1605155869.919402,54.000000,0.000000,4216.410156,4250.256348,4256.922852,4538.205078,4024.743652,4204.487305,4229.743652,4215.641113,4292.179688,4263.333496,4594.102539,4215.128418,4156.922852,4248.717773,0.000000,4.000000,,,,0.000000,4.000000,4.000000,4.000000,4.000000,4.000000,4.000000,4.000000,4.000000,4.000000,4.000000,4.000000,4.000000,4.000000,4.000000,100.000000,,,,,,,,,,,,,,,,,,,,,,,,,,,,,,,,,,,,,,,,,,,,,,,,,,,,,,,,,,,,,,,,,,,,,,
1605155869.927184,55.000000,0.000000,4214.102539,4223.974121,4253.333496,4518.333496,4010.769287,4197.820313,4227.436035,4215.000000,4278.461426,4230.128418,4513.205078,4201.794922,4137.563965,4243.077148,0.000000,4.000000,,,,0.000000,4.000000,4.000000,4.000000,4.000000,4.000000,4.000000,4.000000,4.000000,4.000000,4.000000,4.000000,4.000000,4.000000,4.000000,100.000000,,,,,,,,,,,,,,,,,,,,,,,,,,,,,,,,,,,,,,,,,,,,,,,,,,,,,,,,,,,,,,,,,,,,,,
1605155869.935065,56.000000,0.000000,4219.102539,4230.000000,4260.769043,4523.717773,4013.205078,4196.538574,4230.512695,4217.436035,4287.051270,4222.179688,4490.897461,4195.128418,4141.794922,4234.615234,0.000000,4.000000,,,,0.000000,4.000000,4.000000,4.000000,4.000000,4.000000,4.000000,4.000000,4.000000,4.000000,4.000000,4.000000,4.000000,4.000000,4.000000,100.000000,,,,,,,,,,,,,,,,,,,,,,,,,,,,,,,,,,,,,,,,,,,,,,,,,,,,,,,,,,,,,,,,,,,,,,
1605155869.942847,57.000000,0.000000,4214.487305,4250.000000,4265.384766,4542.563965,4030.512939,4203.846191,4228.717773,4218.974121,4298.205078,4244.743652,4545.000000,4200.641113,4149.487305,4232.436035,0.000000,4.000000,,,,0.000000,4.000000,4.000000,4.000000,4.000000,4.000000,4.000000,4.000000,4.000000,4.000000,4.000000,4.000000,4.000000,4.000000,4.000000,100.000000,,,,,,,,,,,,,,,,,,,,,,,,,,,,,,,,,,,,,,,,,,,,,,,,,,,,,,,,,,,,,,,,,,,,,,
1605155869.950728,58.000000,0.000000,4214.102539,4240.512695,4255.384766,4528.974121,4029.615479,4202.051270,4220.769043,4214.230957,4290.256348,4249.230957,4544.102539,4202.051270,4143.846191,4232.179688,0.000000,4.000000,,,,0.000000,4.000000,4.000000,4.000000,4.000000,4.000000,4.000000,4.000000,4.000000,4.000000,4.000000,4.000000,4.000000,4.000000,4.000000,100.000000,,,,,,,,,,,,,,,,,,,,,,,,,,,,,,,,,,,,,,,,,,,,,,,,,,,,,,,,,,,,,,,,,,,,,,
1605155869.958610,59.000000,0.000000,4215.512695,4227.179688,4244.102539,4508.077148,4020.512939,4198.205078,4219.358887,4211.025879,4282.820313,4231.794922,4502.307617,4197.948730,4145.897461,4234.615234,0.000000,4.000000,,,,0.000000,4.000000,4.000000,4.000000,4.000000,4.000000,4.000000,4.000000,4.000000,4.000000,4.000000,4.000000,4.000000,4.000000,4.000000,100.000000,,,,,,,,,,,,,,,,,,,,,,,,,,,,,,,,,,,,,,,,,,,,,,,,,,,,,,,,,,,,,,,,,,,,,,
1605155869.966391,60.000000,0.000000,4204.871582,4232.051270,4246.794922,4514.871582,4026.923096,4198.717773,4222.179688,4212.051270,4286.538574,4229.358887,4500.256348,4200.000000,4157.051270,4241.794922,0.000000,4.000000,,,,0.000000,4.000000,4.000000,4.000000,4.000000,4.000000,4.000000,4.000000,4.000000,4.000000,4.000000,4.000000,4.000000,4.000000,4.000000,100.000000,,,,,,,,,,,,,,,,,,,,,,,,,,,,,,,,,,,,,,,,,,,,,,,,,,,,,,,,,,,,,,,,,,,,,,
1605155869.974273,61.000000,0.000000,4204.358887,4236.538574,4255.897461,4520.512695,4038.589844,4199.871582,4225.384766,4215.769043,4293.461426,4245.128418,4539.230957,4209.358887,4163.974121,4246.666504,0.000000,4.000000,,,,0.000000,4.000000,4.000000,4.000000,4.000000,4.000000,4.000000,4.000000,4.000000,4.000000,4.000000,4.000000,4.000000,4.000000,4.000000,100.000000,,,,,,,,,,,,,,,,,,,,,,,,,,,,,,,,,,,,,,,,,,,,,,,,,,,,,,,,,,,,,,,,,,,,,,
1605155869.982154,62.000000,0.000000,4223.974121,4249.102539,4270.512695,4518.846191,4045.512939,4207.948730,4231.410156,4224.615234,4301.410156,4264.487305,4591.153809,4220.384766,4169.871582,4250.000000,0.000000,4.000000,,,,0.000000,4.000000,4.000000,4.000000,4.000000,4.000000,4.000000,4.000000,4.000000,4.000000,4.000000,4.000000,4.000000,4.000000,4.000000,100.000000,,,,,,,,,,,,,,,,,,,,,,,,,,,,,,,,,,,,,,,,,,,,,,,,,,,,,,,,,,,,,,,,,,,,,,
1605155869.989835,63.000000,0.000000,4237.692383,4273.333496,4288.077148,4533.846191,4048.461426,4213.077148,4232.948730,4230.897461,4306.025879,4287.436035,4640.512695,4228.205078,4174.871582,4258.974121,0.000000,4.000000,,,,0.000000,4.000000,4.000000,4.000000,4.000000,4.000000,4.000000,4.000000,4.000000,4.000000,4.000000,4.000000,4.000000,4.000000,4.000000,100.000000,,,,,,,,,,,,,,,,,,,,,,,,,,,,,,,,,,,,,,,,,,,,,,,,,,,,,,,,,,,,,,,,,,,,,,
1605155869.997717,64.000000,0.000000,4243.974121,4270.769043,4292.436035,4536.666504,4050.128174,4210.897461,4236.282227,4226.922852,4302.692383,4293.589844,4662.692383,4228.717773,4179.487305,4264.487305,2963.000000,4.000000,,,,0.000000,4.000000,4.000000,4.000000,4.000000,4.000000,4.000000,4.000000,4.000000,4.000000,4.000000,4.000000,4.000000,4.000000,4.000000,100.000000,,,,,,,,,,,,,,,,,,,,,,,,,,,,,,,,,,,,,,,,,,,,,,,,,,,,,,,,,,,,,,,,,,,,,,
1605155870.005499,65.000000,0.000000,4242.436035,4240.641113,4275.769043,4511.922852,4052.435791,4212.563965,4243.846191,4219.871582,4296.025879,4261.666504,4624.230957,4216.282227,4181.538574,4248.205078,3111.000000,4.000000,,,,0.000000,4.000000,4.000000,4.000000,4.000000,4.000000,4.000000,4.000000,4.000000,4.000000,4.000000,4.000000,4.000000,4.000000,4.000000,100.000000,,,,,,,,,,,,,,,,,,,,,,,,,,,,,,,,,,,,,,,,,,,,,,,,,,,,,,,,,,,,,,,,,,,,,,
1605155870.013481,66.000000,0.000000,4217.307617,4225.256348,4256.025879,4494.743652,4051.025635,4210.384766,4239.102539,4217.307617,4290.641113,4222.436035,4525.000000,4199.743652,4168.333496,4226.282227,2591.000000,4.000000,,,,0.000000,4.000000,4.000000,4.000000,4.000000,4.000000,4.000000,4.000000,4.000000,4.000000,4.000000,4.000000,4.000000,4.000000,4.000000,100.000000,,,,,,,,,,,,,,,,,,,,,,,,,,,,,,,,,,,,,,,,,,,,,,,,,,,,,,,,,,,,,,,,,,,,,,
1605155870.021463,67.000000,0.000000,4202.820313,4233.974121,4255.769043,4495.128418,4050.512939,4201.794922,4228.461426,4217.948730,4293.846191,4222.179688,4477.307617,4195.641113,4160.897461,4225.256348,3253.000000,4.000000,,,,0.000000,4.000000,4.000000,4.000000,4.000000,4.000000,4.000000,4.000000,4.000000,4.000000,4.000000,4.000000,4.000000,4.000000,4.000000,100.000000,4.291608,4.280791,1.549798,1.261385,0.986937,1.988918,0.897600,0.874526,2.047615,1.546190,3.105677,1.797638,0.919354,0.546375,0.572295,3.905218,1.392995,0.985972,1.826966,1.806299,5.957807,1.241962,0.382172,0.435759,0.272730,0.370027,0.282808,0.086688,0.286605,0.280913,0.862412,0.308110,0.252779,0.337107,0.265358,0.417771,0.201147,0.136825,0.135225,0.123767,0.591594,0.341388,0.180698,0.215675,0.285548,5.367427,1.842776,1.621751,1.586820,1.552862,44.950283,19.398306,18.081902,9.388589,7.860071,1.959584,2.629418,1.366754,0.355587,0.325335,2.157559,0.704353,1.731966,0.857010,1.028558,0.709067,1.434165,0.615010,0.609881,0.444554
1605155870.029446,68.000000,0.000000,4211.922852,4251.410156,4264.487305,4508.717773,4050.256348,4200.897461,4227.692383,4217.692383,4296.538574,4241.025879,4527.820313,4201.538574,4165.256348,4231.153809,3265.000000,4.000000,,,,0.000000,4.000000,4.000000,4.000000,4.000000,4.000000,4.000000,4.000000,4.000000,4.000000,4.000000,4.000000,4.000000,4.000000,4.000000,100.000000,,,,,,,,,,,,,,,,,,,,,,,,,,,,,,,,,,,,,,,,,,,,,,,,,,,,,,,,,,,,,,,,,,,,,,
1605155870.037329,69.000000,0.000000,4217.436035,4241.922852,4263.974121,4514.615234,4045.512939,4200.897461,4225.128418,4215.000000,4288.846191,4234.743652,4536.410156,4207.051270,4162.051270,4237.307617,2139.000000,4.000000,,,,0.000000,4.000000,4.000000,4.000000,4.000000,4.000000,4.000000,4.000000,4.000000,4.000000,4.000000,4.000000,4.000000,4.000000,4.000000,100.000000,,,,,,,,,,,,,,,,,,,,,,,,,,,,,,,,,,,,,,,,,,,,,,,,,,,,,,,,,,,,,,,,,,,,,,
1605155870.045212,70.000000,0.000000,4230.000000,4213.077148,4265.641113,4486.153809,4050.897461,4197.820313,4226.153809,4216.282227,4289.102539,4227.051270,4508.333496,4219.102539,4165.897461,4255.512695,2732.000000,4.000000,,,,0.000000,4.000000,4.000000,4.000000,4.000000,4.000000,4.000000,4.000000,4.000000,4.000000,4.000000,4.000000,4.000000,4.000000,4.000000,100.000000,,,,,,,,,,,,,,,,,,,,,,,,,,,,,,,,,,,,,,,,,,,,,,,,,,,,,,,,,,,,,,,,,,,,,,
1605155870.053194,71.000000,0.000000,4239.871582,4223.846191,4265.000000,4463.974121,4062.820557,4201.410156,4234.230957,4222.948730,4298.333496,4246.025879,4548.589844,4224.230957,4184.743652,4256.282227,2443.000000,4.000000,,,,0.000000,4.000000,4.000000,4.000000,4.000000,4.000000,4.000000,4.000000,4.000000,4.000000,4.000000,4.000000,4.000000,4.000000,4.000000,100.000000,,,,,,,,,,,,,,,,,,,,,,,,,,,,,,,,,,,,,,,,,,,,,,,,,,,,,,,,,,,,,,,,,,,,,,
1605155870.061076,72.000000,0.000000,4217.948730,4240.256348,4250.384766,4477.307617,4065.000000,4206.153809,4233.461426,4222.563965,4297.563965,4259.743652,4560.000000,4207.179688,4189.871582,4227.563965,2957.000000,4.000000,,,,0.000000,4.000000,4.000000,4.000000,4.000000,4.000000,4.000000,4.000000,4.000000,4.000000,4.000000,4.000000,4.000000,4.000000,4.000000,100.000000,,,,,,,,,,,,,,,,,,,,,,,,,,,,,,,,,,,,,,,,,,,,,,,,,,,,,,,,,,,,,,,,,,,,,,
1605155870.069059,73.000000,0.000000,4207.307617,4220.128418,4248.077148,4484.102539,4061.281982,4205.128418,4226.666504,4216.538574,4291.794922,4250.256348,4487.820313,4196.282227,4179.871582,4221.025879,4173.000000,4.000000,,,,0.000000,4.000000,4.000000,4.000000,4.000000,4.000000,4.000000,4.000000,4.000000,4.000000,4.000000,4.000000,4.000000,4.000000,4.000000,100.000000,,,,,,,,,,,,,,,,,,,,,,,,,,,,,,,,,,,,,,,,,,,,,,,,,,,,,,,,,,,,,,,,,,,,,,
1605155870.076941,74.000000,0.000000,4227.436035,4226.794922,4264.871582,4491.794922,4066.923096,4202.563965,4227.820313,4221.282227,4297.692383,4255.897461,4506.153809,4208.205078,4179.358887,4238.974121,2828.000000,4.000000,,,,0.000000,4.000000,4.000000,4.000000,4.000000,4.000000,4.000000,4.000000,4.000000,4.000000,4.000000,4.000000,4.000000,4.000000,4.000000,100.000000,,,,,,,,,,,,,,,,,,,,,,,,,,,,,,,,,,,,,,,,,,,,,,,,,,,,,,,,,,,,,,,,,,,,,,
1605155870.084924,75.000000,1.000000,4231.217773,4224.487305,4264.957031,4484.487305,4069.380371,4202.136719,4228.846191,4222.436035,4297.265137,4253.504395,4507.457031,4206.837402,4182.008789,4237.051270,2499.000000,4.000000,,,,0.000000,4.000000,4.000000,4.000000,4.000000,4.000000,4.000000,4.000000,4.000000,4.000000,4.000000,4.000000,4.000000,4.000000,4.000000,100.000000,,,,,,,,,,,,,,,,,,,,,,,,,,,,,,,,,,,,,,,,,,,,,,,,,,,,,,,,,,,,,,,,,,,,,,
1605155870.092807,76.000000,1.000000,4235.000000,4222.179688,4265.042969,4477.179688,4071.837646,4201.709473,4229.871582,4223.589844,4296.837402,4251.111328,4508.760742,4205.470215,4184.658203,4235.128418,11707.000000,4.000000,,,,0.000000,4.000000,4.000000,4.000000,4.000000,4.000000,4.000000,4.000000,4.000000,4.000000,4.000000,4.000000,4.000000,4.000000,4.000000,100.000000,,,,,,,,,,,,,,,,,,,,,,,,,,,,,,,,,,,,,,,,,,,,,,,,,,,,,,,,,,,,,,,,,,,,,,
1605155870.100690,77.000000,1.000000,4238.782227,4219.871582,4265.128418,4469.871582,4074.294922,4201.282227,4230.897461,4224.743652,4296.410156,4248.717773,4510.063965,4204.102539,4187.307617,4233.205078,3163.000000,4.000000,,,,0.000000,4.000000,4.000000,4.000000,4.000000,4.000000,4.000000,4.000000,4.000000,4.000000,4.000000,4.000000,4.000000,4.000000,4.000000,100.000000,,,,,,,,,,,,,,,,,,,,,,,,,,,,,,,,,,,,,,,,,,,,,,,,,,,,,,,,,,,,,,,,,,,,,,
1605155870.108573,78.000000,1.000000,4242.563965,4217.563965,4265.213867,4462.563965,4076.752197,4200.854492,4231.922852,4225.897461,4295.982910,4246.324707,4511.367676,4202.734863,4189.957031,4231.282227,2825.000000,4.000000,,,,0.000000,4.000000,4.000000,4.000000,4.000000,4.000000,4.000000,4.000000,4.000000,4.000000,4.000000,4.000000,4.000000,4.000000,4.000000,100.000000,,,,,,,,,,,,,,,,,,,,,,,,,,,,,,,,,,,,,,,,,,,,,,,,,,,,,,,,,,,,,,,,,,,,,,
1605155870.116456,79.000000,1.000000,4246.346191,4215.256348,4265.299316,4455.256348,4079.209473,4200.427246,4232.948730,4227.051270,4295.555664,4243.931641,4512.670898,4201.367676,4192.606934,4229.358887,2738.000000,4.000000,,,,0.000000,4.000000,4.000000,4.000000,4.000000,4.000000,4.000000,4.000000,4.000000,4.000000,4.000000,4.000000,4.000000,4.000000,4.000000,100.000000,,,,,,,,,,,,,,,,,,,,,,,,,,,,,,,,,,,,,,,,,,,,,,,,,,,,,,,,,,,,,,,,,,,,,,
1605155870.124339,80.000000,0.000000,4250.128418,4212.948730,4265.384766,4447.948730,4081.666748,4200.000000,4233.974121,4228.205078,4295.128418,4241.538574,4513.974121,4200.000000,4195.256348,4227.436035,11619.000000,4.000000,,,,0.000000,4.000000,4.000000,4.000000,4.000000,4.000000,4.000000,4.000000,4.000000,4.000000,4.000000,4.000000,4.000000,4.000000,4.000000,100.000000,,,,,,,,,,,,,,,,,,,,,,,,,,,,,,,,,,,,,,,,,,,,,,,,,,,,,,,,,,,,,,,,,,,,,,
1605155870.132121,81.000000,0.000000,4245.897461,4219.358887,4260.897461,4462.436035,4088.589844,4202.692383,4231.410156,4224.358887,4300.897461,4249.487305,4515.384766,4198.205078,4198.205078,4211.666504,3117.000000,4.000000,,,,0.000000,4.000000,4.000000,4.000000,4.000000,4.000000,4.000000,4.000000,4.000000,4.000000,4.000000,4.000000,4.000000,4.000000,4.000000,100.000000,,,,,,,,,,,,,,,,,,,,,,,,,,,,,,,,,,,,,,,,,,,,,,,,,,,,,,,,,,,,,,,,,,,,,,
1605155870.140003,82.000000,0.000000,4203.461426,4247.051270,4247.948730,4465.384766,4093.333252,4211.282227,4234.487305,4218.205078,4298.333496,4252.692383,4528.333496,4202.051270,4215.256348,4212.307617,2828.000000,4.000000,,,,0.000000,4.000000,4.000000,4.000000,4.000000,4.000000,4.000000,4.000000,4.000000,4.000000,4.000000,4.000000,4.000000,4.000000,4.000000,100.000000,,,,,,,,,,,,,,,,,,,,,,,,,,,,,,,,,,,,,,,,,,,,,,,,,,,,,,,,,,,,,,,,,,,,,,
1605155870.147884,83.000000,0.000000,4190.128418,4244.230957,4242.692383,4452.563965,4090.641113,4213.333496,4235.512695,4219.230957,4293.333496,4246.282227,4517.820313,4197.820313,4217.436035,4213.589844,2687.000000,4.000000,,,,0.000000,4.000000,4.000000,4.000000,4.000000,4.000000,4.000000,4.000000,4.000000,4.000000,4.000000,4.000000,4.000000,4.000000,4.000000,100.000000,4.477908,4.269676,1.941055,1.260981,0.957831,1.721547,0.868018,0.856263,1.783882,1.549416,2.011615,1.537839,0.989534,0.495188,0.567717,4.743696,1.620570,1.100305,1.584749,1.735691,5.528097,1.299516,0.373375,0.450663,0.246877,0.336617,0.199095,0.079210,0.249133,0.254035,0.824443,0.337405,0.278191,0.274582,0.240237,0.490604,0.247975,0.171676,0.143844,0.126961,0.573815,0.380812,0.236039,0.217229,0.263484,4.833086,1.938136,1.998063,1.540932,1.318787,39.548706,21.098091,21.583141,8.086919,7.199267,1.906458,2.254141,1.477171,0.322076,0.299924,1.852262,0.724416,1.704018,0.809172,1.031197,0.657019,1.406163,0.632531,0.554025,0.403710
1605155870.155766,84.000000,0.000000,4208.589844,4223.205078,4250.769043,4448.077148,4088.333252,4209.871582,4233.717773,4221.153809,4294.615234,4235.512695,4488.974121,4193.077148,4208.717773,4211.922852,11619.000000,4.000000,,,,0.000000,4.000000,4.000000,4.000000,4.000000,4.000000,4.000000,4.000000,4.000000,4.000000,4.000000,4.000000,4.000000,4.000000,4.000000,100.000000,,,,,,,,,,,,,,,,,,,,,,,,,,,,,,,,,,,,,,,,,,,,,,,,,,,,,,,,,,,,,,,,,,,,,,
1605155870.163547,85.000000,0.000000,4218.077148,4228.589844,4259.871582,4452.307617,4089.358887,4208.077148,4232.307617,4219.487305,4294.487305,4240.384766,4491.922852,4196.538574,4207.692383,4224.230957,3117.000000,4.000000,,,,0.000000,4.000000,4.000000,4.000000,4.000000,4.000000,4.000000,4.000000,4.000000,4.000000,4.000000,4.000000,4.000000,4.000000,4.000000,100.000000,,,,,,,,,,,,,,,,,,,,,,,,,,,,,,,,,,,,,,,,,,,,,,,,,,,,,,,,,,,,,,,,,,,,,,
1605155870.171329,86.000000,0.000000,4213.846191,4234.358887,4253.333496,4446.282227,4090.769287,4211.410156,4231.282227,4219.615234,4288.333496,4251.922852,4507.820313,4191.922852,4211.794922,4231.794922,2828.000000,4.000000,,,,0.000000,4.000000,4.000000,4.000000,4.000000,4.000000,4.000000,4.000000,4.000000,4.000000,4.000000,4.000000,4.000000,4.000000,4.000000,100.000000,,,,,,,,,,,,,,,,,,,,,,,,,,,,,,,,,,,,,,,,,,,,,,,,,,,,,,,,,,,,,,,,,,,,,,
1605155870.179210,87.000000,0.000000,4211.538574,4211.538574,4245.769043,4423.717773,4090.769287,4213.077148,4234.358887,4219.102539,4285.128418,4240.897461,4483.333496,4184.871582,4211.794922,4227.692383,2687.000000,4.000000,,,,0.000000,4.000000,4.000000,4.000000,4.000000,4.000000,4.000000,4.000000,4.000000,4.000000,4.000000,4.000000,4.000000,4.000000,4.000000,100.000000,,,,,,,,,,,,,,,,,,,,,,,,,,,,,,,,,,,,,,,,,,,,,,,,,,,,,,,,,,,,,,,,,,,,,,
1605155870.186992,88.000000,0.000000,4214.615234,4203.846191,4249.743652,4412.948730,4093.846191,4211.410156,4233.974121,4218.461426,4289.871582,4230.897461,4470.128418,4194.615234,4211.922852,4233.589844,11619.000000,4.000000,,,,0.000000,4.000000,4.000000,4.000000,4.000000,4.000000,4.000000,4.000000,4.000000,4.000000,4.000000,4.000000,4.000000,4.000000,4.000000,100.000000,,,,,,,,,,,,,,,,,,,,,,,,,,,,,,,,,,,,,,,,,,,,,,,,,,,,,,,,,,,,,,,,,,,,,,
1605155870.194773,89.000000,0.000000,4214.358887,4215.256348,4251.538574,4425.769043,4102.948730,4210.769043,4232.051270,4219.615234,4294.615234,4244.102539,4494.871582,4202.179688,4215.256348,4235.256348,3117.000000,4.000000,,,,0.000000,4.000000,4.000000,4.000000,4.000000,4.000000,4.000000,4.000000,4.000000,4.000000,4.000000,4.000000,4.000000,4.000000,4.000000,100.000000,,,,,,,,,,,,,,,,,,,,,,,,,,,,,,,,,,,,,,,,,,,,,,,,,,,,,,,,,,,,,,,,,,,,,,
1605155870.202555,90.000000,0.000000,4217.820313,4210.256348,4251.282227,4436.410156,4104.102539,4205.512695,4233.589844,4218.589844,4290.512695,4240.000000,4481.538574,4196.794922,4205.256348,4228.077148,2828.000000,4.000000,,,,0.000000,4.000000,4.000000,4.000000,4.000000,4.000000,4.000000,4.000000,4.000000,4.000000,4.000000,4.000000,4.000000,4.000000,4.000000,100.000000,,,,,,,,,,,,,,,,,,,,,,,,,,,,,,,,,,,,,,,,,,,,,,,,,,,,,,,,,,,,,,,,,,,,,,
1605155870.210338,91.000000,0.000000,4217.051270,4205.000000,4247.820313,4426.666504,4090.000000,4196.666504,4230.384766,4212.179688,4279.230957,4199.871582,4421.666504,4194.615234,4189.102539,4230.512695,2687.000000,4.000000,,,,0.000000,4.000000,4.000000,4.000000,4.000000,4.000000,4.000000,4.000000,4.000000,4.000000,4.000000,4.000000,4.000000,4.000000,4.000000,100.000000,,,,,,,,,,,,,,,,,,,,,,,,,,,,,,,,,,,,,,,,,,,,,,,,,,,,,,,,,,,,,,,,,,,,,,
1605155870.218220,92.000000,0.000000,4204.615234,4217.563965,4239.743652,4413.461426,4092.435791,4200.256348,4225.641113,4213.333496,4279.871582,4195.256348,4410.897461,4192.948730,4196.794922,4228.589844,11619.000000,4.000000,,,,0.000000,4.000000,4.000000,4.000000,4.000000,4.000000,4.000000,4.000000,4.000000,4.000000,4.000000,4.000000,4.000000,4.000000,4.000000,100.000000,,,,,,,,,,,,,,,,,,,,,,,,,,,,,,,,,,,,,,,,,,,,,,,,,,,,,,,,,,,,,,,,,,,,,,
1605155870.226102,93.000000,0.000000,4197.179688,4218.846191,4236.153809,4408.333496,4114.230957,4207.948730,4229.743652,4225.897461,4294.743652,4238.205078,4456.153809,4185.641113,4219.871582,4210.128418,3117.000000,4.000000,,,,0.000000,4.000000,4.000000,4.000000,4.000000,4.000000,4.000000,4.000000,4.000000,4.000000,4.000000,4.000000,4.000000,4.000000,4.000000,100.000000,,,,,,,,,,,,,,,,,,,,,,,,,,,,,,,,,,,,,,,,,,,,,,,,,,,,,,,,,,,,,,,,,,,,,,
1605155870.233884,94.000000,0.000000,4202.692383,4208.717773,4239.615234,4403.333496,4118.333496,4202.563965,4233.974121,4225.128418,4298.589844,4239.358887,4450.512695,4184.230957,4222.820313,4201.666504,2828.000000,4.000000,,,,0.000000,4.000000,4.000000,4.000000,4.000000,4.000000,4.000000,4.000000,4.000000,4.000000,4.000000,4.000000,4.000000,4.000000,4.000000,100.000000,,,,,,,,,,,,,,,,,,,,,,,,,,,,,,,,,,,,,,,,,,,,,,,,,,,,,,,,,,,,,,,,,,,,,,
1605155870.241867,95.000000,0.000000,4210.897461,4214.102539,4240.769043,4400.641113,4111.410156,4204.358887,4228.717773,4216.025879,4290.897461,4209.358887,4429.871582,4192.179688,4210.000000,4215.256348,2687.000000,4.000000,,,,0.000000,4.000000,4.000000,4.000000,4.000000,4.000000,4.000000,4.000000,4.000000,4.000000,4.000000,4.000000,4.000000,4.000000,4.000000,100.000000,,,,,,,,,,,,,,,,,,,,,,,,,,,,,,,,,,,,,,,,,,,,,,,,,,,,,,,,,,,,,,,,,,,,,,
1605155870.249749,96.000000,0.000000,4218.461426,4215.384766,4242.820313,4401.282227,4121.282227,4213.589844,4230.128418,4220.256348,4292.179688,4223.205078,4462.820313,4203.077148,4213.589844,4231.025879,11619.000000,4.000000,,,,0.000000,4.000000,4.000000,4.000000,4.000000,4.000000,4.000000,4.000000,4.000000,4.000000,4.000000,4.000000,4.000000,4.000000,4.000000,100.000000,,,,,,,,,,,,,,,,,,,,,,,,,,,,,,,,,,,,,,,,,,,,,,,,,,,,,,,,,,,,,,,,,,,,,,
1605155870.257632,97.000000,0.000000,4237.563965,4209.230957,4253.333496,4402.051270,4134.230957,4213.717773,4239.487305,4229.487305,4296.538574,4247.179688,4509.102539,4210.897461,4232.436035,4238.846191,3117.000000,4.000000,,,,0.000000,4.000000,4.000000,4.000000,4.000000,4.000000,4.000000,4.000000,4.000000,4.000000,4.000000,4.000000,4.000000,4.000000,4.000000,100.000000,,,,,,,,,,,,,,,,,,,,,,,,,,,,,,,,,,,,,,,,,,,,,,,,,,,,,,,,,,,,,,,,,,,,,,
1605155870.265614,98.000000,0.000000,4252.307617,4229.871582,4265.769043,4415.384766,4141.282227,4213.589844,4242.692383,4232.051270,4297.820313,4249.743652,4549.487305,4215.897461,4247.692383,4243.077148,2828.000000,4.000000,,,,0.000000,4.000000,4.000000,4.000000,4.000000,4.000000,4.000000,4.000000,4.000000,4.000000,4.000000,4.000000,4.000000,4.000000,4.000000,100.000000,,,,,,,,,,,,,,,,,,,,,,,,,,,,,,,,,,,,,,,,,,,,,,,,,,,,,,,,,,,,,,,,,,,,,,
1605155870.273497,99.000000,0.000000,4244.871582,4240.512695,4264.358887,4426.666504,4146.025879,4218.589844,4239.743652,4225.641113,4295.512695,4259.615234,4569.230957,4216.922852,4249.615234,4243.333496,2687.000000,4.000000,,,,0.000000,4.000000,4.000000,4.000000,4.000000,4.000000,4.000000,4.000000,4.000000,4.000000,4.000000,4.000000,4.000000,4.000000,4.000000,100.000000,5.404960,4.056601,2.309188,1.213922,0.966710,1.460432,0.910757,0.870354,1.568352,1.509133,1.285462,1.300809,1.102076,0.478895,0.549318,4.893874,1.776193,1.213286,1.372135,1.575698,4.979730,1.337943,0.386564,0.442349,0.221637,0.282977,0.144420,0.083941,0.212906,0.224063,0.716298,0.398690,0.316792,0.218071,0.216242,0.539675,0.286933,0.204853,0.155410,0.128584,0.495692,0.406512,0.302390,0.213636,0.240536,3.957099,2.165039,2.455152,1.478297,1.092139,33.456013,23.141062,25.039484,7.085578,6.556936,1.966371,1.854664,1.543865,0.309665,0.286530,1.558493,0.829562,1.573254,0.749402,1.027894,0.700916,1.355840,0.651242,0.505829,0.374825
1605155870.281479,100.000000,0.000000,4231.410156,4217.948730,4244.358887,4409.102539,4147.179688,4214.615234,4234.871582,4218.333496,4288.077148,4253.846191,4532.179688,4212.051270,4242.563965,4246.922852,11619.000000,4.000000,,,,0.000000,4.000000,4.000000,4.000000,4.000000,4.000000,4.000000,4.000000,4.000000,4.000000,4.000000,4.000000,4.000000,4.000000,4.000000,100.000000,,,,,,,,,,,,,,,,,,,,,,,,,,,,,,,,,,,,,,,,,,,,,,,,,,,,,,,,,,,,,,,,,,,,,,
1605155870.289461,101.000000,0.000000,4227.307617,4212.692383,4232.820313,4391.282227,4152.179688,4208.974121,4231.282227,4219.743652,4288.846191,4228.333496,4493.974121,4206.282227,4231.794922,4249.615234,3117.000000,4.000000,,,,0.000000,4.000000,4.000000,4.000000,4.000000,4.000000,4.000000,4.000000,4.000000,4.000000,4.000000,4.000000,4.000000,4.000000,4.000000,100.000000,,,,,,,,,,,,,,,,,,,,,,,,,,,,,,,,,,,,,,,,,,,,,,,,,,,,,,,,,,,,,,,,,,,,,,
1605155870.297344,102.000000,0.000000,4240.641113,4220.897461,4245.384766,4391.666504,4155.897461,4210.641113,4231.922852,4222.948730,4293.205078,4229.743652,4505.512695,4205.256348,4229.102539,4240.128418,2828.000000,4.000000,,,,0.000000,4.000000,4.000000,4.000000,4.000000,4.000000,4.000000,4.000000,4.000000,4.000000,4.000000,4.000000,4.000000,4.000000,4.000000,100.000000,,,,,,,,,,,,,,,,,,,,,,,,,,,,,,,,,,,,,,,,,,,,,,,,,,,,,,,,,,,,,,,,,,,,,,
1605155870.305327,103.000000,0.000000,4258.077148,4214.230957,4255.641113,4389.743652,4148.205078,4209.230957,4233.077148,4218.461426,4288.974121,4238.589844,4511.153809,4202.179688,4237.948730,4229.230957,2687.000000,4.000000,,,,0.000000,4.000000,4.000000,4.000000,4.000000,4.000000,4.000000,4.000000,4.000000,4.000000,4.000000,4.000000,4.000000,4.000000,4.000000,100.000000,,,,,,,,,,,,,,,,,,,,,,,,,,,,,,,,,,,,,,,,,,,,,,,,,,,,,,,,,,,,,,,,,,,,,,
1605155870.313209,104.000000,0.000000,4248.205078,4224.358887,4247.051270,4388.589844,4146.794922,4210.128418,4233.589844,4217.820313,4285.384766,4227.179688,4492.948730,4197.820313,4235.769043,4229.743652,11619.000000,4.000000,,,,0.000000,4.000000,4.000000,4.000000,4.000000,4.000000,4.000000,4.000000,4.000000,4.000000,4.000000,4.000000,4.000000,4.000000,4.000000,100.000000,,,,,,,,,,,,,,,,,,,,,,,,,,,,,,,,,,,,,,,,,,,,,,,,,,,,,,,,,,,,,,,,,,,,,,
1605155870.321192,105.000000,0.000000,4214.358887,4244.358887,4232.563965,4388.333496,4159.230957,4216.410156,4233.461426,4221.922852,4291.922852,4231.025879,4496.538574,4202.948730,4242.820313,4233.589844,3117.000000,4.000000,,,,0.000000,4.000000,4.000000,4.000000,4.000000,4.000000,4.000000,4.000000,4.000000,4.000000,4.000000,4.000000,4.000000,4.000000,4.000000,100.000000,,,,,,,,,,,,,,,,,,,,,,,,,,,,,,,,,,,,,,,,,,,,,,,,,,,,,,,,,,,,,,,,,,,,,,
1605155870.329074,106.000000,0.000000,4206.410156,4227.820313,4229.358887,4378.205078,4163.717773,4211.794922,4231.794922,4219.615234,4294.487305,4245.641113,4508.461426,4210.769043,4269.743652,4236.153809,2828.000000,4.000000,,,,0.000000,4.000000,4.000000,4.000000,4.000000,4.000000,4.000000,4.000000,4.000000,4.000000,4.000000,4.000000,4.000000,4.000000,4.000000,100.000000,,,,,,,,,,,,,,,,,,,,,,,,,,,,,,,,,,,,,,,,,,,,,,,,,,,,,,,,,,,,,,,,,,,,,,
1605155870.337057,107.000000,0.000000,4228.717773,4206.538574,4238.974121,4370.256348,4157.948730,4202.436035,4233.077148,4217.820313,4286.025879,4233.974121,4493.846191,4202.692383,4260.897461,4235.000000,2687.000000,4.000000,,,,0.000000,4.000000,4.000000,4.000000,4.000000,4.000000,4.000000,4.000000,4.000000,4.000000,4.000000,4.000000,4.000000,4.000000,4.000000,100.000000,,,,,,,,,,,,,,,,,,,,,,,,,,,,,,,,,,,,,,,,,,,,,,,,,,,,,,,,,,,,,,,,,,,,,,
1605155870.344939,108.000000,0.000000,4234.358887,4219.102539,4242.307617,4376.025879,4155.897461,4200.384766,4231.538574,4217.051270,4277.948730,4210.256348,4450.512695,4185.897461,4221.794922,4221.794922,11619.000000,4.000000,,,,0.000000,4.000000,4.000000,4.000000,4.000000,4.000000,4.000000,4.000000,4.000000,4.000000,4.000000,4.000000,4.000000,4.000000,4.000000,100.000000,,,,,,,,,,,,,,,,,,,,,,,,,,,,,,,,,,,,,,,,,,,,,,,,,,,,,,,,,,,,,,,,,,,,,,
1605155870.352922,109.000000,0.000000,4231.282227,4236.922852,4237.563965,4380.512695,4162.307617,4201.153809,4224.102539,4215.897461,4278.846191,4208.077148,4426.666504,4182.307617,4221.025879,4213.205078,3117.000000,4.000000,,,,0.000000,4.000000,4.000000,4.000000,4.000000,4.000000,4.000000,4.000000,4.000000,4.000000,4.000000,4.000000,4.000000,4.000000,4.000000,100.000000,,,,,,,,,,,,,,,,,,,,,,,,,,,,,,,,,,,,,,,,,,,,,,,,,,,,,,,,,,,,,,,,,,,,,,
1605155870.360804,110.000000,0.000000,4235.641113,4230.384766,4236.410156,4375.128418,4165.384766,4201.538574,4219.358887,4217.436035,4281.025879,4223.974121,4444.743652,4185.769043,4240.000000,4214.615234,2828.000000,4.000000,,,,0.000000,4.000000,4.000000,4.000000,4.000000,4.000000,4.000000,4.000000,4.000000,4.000000,4.000000,4.000000,4.000000,4.000000,4.000000,100.000000,,,,,,,,,,,,,,,,,,,,,,,,,,,,,,,,,,,,,,,,,,,,,,,,,,,,,,,,,,,,,,,,,,,,,,
1605155870.368787,111.000000,0.000000,4237.051270,4218.077148,4234.102539,4369.358887,4163.333496,4198.846191,4219.487305,4215.000000,4277.948730,4226.153809,4439.487305,4181.153809,4236.666504,4209.102539,2687.000000,4.000000,,,,0.000000,4.000000,4.000000,4.000000,4.000000,4.000000,4.000000,4.000000,4.000000,4.000000,4.000000,4.000000,4.000000,4.000000,4.000000,100.000000,,,,,,,,,,,,,,,,,,,,,,,,,,,,,,,,,,,,,,,,,,,,,,,,,,,,,,,,,,,,,,,,,,,,,,
1605155870.376669,112.000000,0.000000,4236.538574,4222.948730,4229.615234,4357.563965,4170.641113,4198.717773,4225.897461,4215.128418,4282.179688,4217.307617,4433.589844,4185.256348,4231.025879,4208.846191,11619.000000,4.000000,,,,0.000000,4.000000,4.000000,4.000000,4.000000,4.000000,4.000000,4.000000,4.000000,4.000000,4.000000,4.000000,4.000000,4.000000,4.000000,100.000000,,,,,,,,,,,,,,,,,,,,,,,,,,,,,,,,,,,,,,,,,,,,,,,,,,,,,,,,,,,,,,,,,,,,,,
1605155870.384752,113.000000,1.000000,4235.659180,4219.963379,4228.314941,4353.772949,4173.498047,4198.607910,4225.183105,4215.238281,4281.373535,4213.187012,4422.216309,4182.252930,4230.201660,4205.329590,10343.000000,4.000000,,,,0.000000,4.000000,4.000000,4.000000,4.000000,4.000000,4.000000,4.000000,4.000000,4.000000,4.000000,4.000000,4.000000,4.000000,4.000000,100.000000,,,,,,,,,,,,,,,,,,,,,,,,,,,,,,,,,,,,,,,,,,,,,,,,,,,,,,,,,,,,,,,,,,,,,,
1605155870.392636,114.000000,1.000000,4234.780273,4216.978027,4227.014648,4349.981445,4176.355469,4198.498047,4224.468750,4215.348145,4280.567871,4209.065918,4410.842285,4179.249023,4229.377441,4201.812988,9067.000000,4.000000,,,,0.000000,4.000000,4.000000,4.000000,4.000000,4.000000,4.000000,4.000000,4.000000,4.000000,4.000000,4.000000,4.000000,4.000000,4.000000,100.000000,,,,,,,,,,,,,,,,,,,,,,,,,,,,,,,,,,,,,,,,,,,,,,,,,,,,,,,,,,,,,,,,,,,,,,
1605155870.400519,115.000000,1.000000,4233.900879,4213.992676,4225.714355,4346.190430,4179.212402,4198.388184,4223.754395,4215.458008,4279.761719,4204.944824,4399.468750,4176.245605,4228.553223,4198.296875,7791.000000,4.000000,,,,0.000000,4.000000,4.000000,4.000000,4.000000,4.000000,4.000000,4.000000,4.000000,4.000000,4.000000,4.000000,4.000000,4.000000,4.000000,100.000000,6.634070,3.698117,2.548007,1.177931,1.012624,1.376272,0.993402,0.929859,1.448361,1.441292,0.966432,1.138987,1.214782,0.518953,0.519917,5.025217,1.798012,1.304912,1.241221,1.372373,4.328821,1.335721,0.420565,0.414795,0.204732,0.230296,0.127816,0.103692,0.181249,0.193498,0.556606,0.484903,0.357780,0.177327,0.194115,0.531830,0.313083,0.229348,0.166882,0.127622,0.383205,0.415141,0.365606,0.205501,0.218555,2.989524,2.538134,2.926735,1.420073,0.923088,27.555014,25.132231,28.034676,6.687029,6.105864,2.121702,1.524236,1.581934,0.327224,0.285938,1.341287,0.992999,1.385705,0.674291,1.004207,0.804510,1.309336,0.676833,0.484806,0.364106
1605155870.408403,116.000000,1.000000,4233.021973,4211.007324,4224.414063,4342.399414,4182.069824,4198.278320,4223.040527,4215.567871,4278.956055,4200.824219,4388.095215,4173.241699,4227.729004,4194.780273,6515.000000,4.000000,,,,0.000000,4.000000,4.000000,4.000000,4.000000,4.000000,4.000000,4.000000,4.000000,4.000000,4.000000,4.000000,4.000000,4.000000,4.000000,100.000000,,,,,,,,,,,,,,,,,,,,,,,,,,,,,,,,,,,,,,,,,,,,,,,,,,,,,,,,,,,,,,,,,,,,,,
1605155870.416287,117.000000,1.000000,4232.143066,4208.021973,4223.113770,4338.607910,4184.926758,4198.168457,4222.326172,4215.677734,4278.150391,4196.703125,4376.721680,4170.238281,4226.904785,4191.263672,5239.000000,4.000000,,,,0.000000,4.000000,4.000000,4.000000,4.000000,4.000000,4.000000,4.000000,4.000000,4.000000,4.000000,4.000000,4.000000,4.000000,4.000000,100.000000,,,,,,,,,,,,,,,,,,,,,,,,,,,,,,,,,,,,,,,,,,,,,,,,,,,,,,,,,,,,,,,,,,,,,,
1605155870.424170,118.000000,1.000000,4231.263672,4205.036621,4221.812988,4334.816895,4187.783691,4198.058594,4221.611816,4215.787598,4277.344238,4192.582520,4365.348145,4167.234375,4226.080566,4187.747070,3963.000000,4.000000,,,,0.000000,4.000000,4.000000,4.000000,4.000000,4.000000,4.000000,4.000000,4.000000,4.000000,4.000000,4.000000,4.000000,4.000000,4.000000,100.000000,,,,,,,,,,,,,,,,,,,,,,,,,,,,,,,,,,,,,,,,,,,,,,,,,,,,,,,,,,,,,,,,,,,,,,
1605155870.432054,119.000000,0.000000,4230.384766,4202.051270,4220.512695,4331.025879,4190.641113,4197.948730,4220.897461,4215.897461,4276.538574,4188.461426,4353.974121,4164.230957,4225.256348,4184.230957,2687.000000,4.000000,,,,0.000000,4.000000,4.000000,4.000000,4.000000,4.000000,4.000000,4.000000,4.000000,4.000000,4.000000,4.000000,4.000000,4.000000,4.000000,100.000000,,,,,,,,,,,,,,,,,,,,,,,,,,,,,,,,,,,,,,,,,,,,,,,,,,,,,,,,,,,,,,,,,,,,,,
1605155870.439937,120.000000,0.000000,4250.000000,4198.077148,4228.333496,4336.282227,4187.436035,4198.077148,4221.538574,4215.128418,4280.256348,4204.230957,4384.487305,4183.205078,4232.820313,4203.717773,11619.000000,4.000000,,,,0.000000,4.000000,4.000000,4.000000,4.000000,4.000000,4.000000,4.000000,4.000000,4.000000,4.000000,4.000000,4.000000,4.000000,4.000000,100.000000,,,,,,,,,,,,,,,,,,,,,,,,,,,,,,,,,,,,,,,,,,,,,,,,,,,,,,,,,,,,,,,,,,,,,,
1605155870.447821,121.000000,0.000000,4250.897461,4228.333496,4237.436035,4356.922852,4192.948730,4200.384766,4217.692383,4215.512695,4280.384766,4217.179688,4449.230957,4195.128418,4247.820313,4220.256348,3117.000000,4.000000,,,,0.000000,4.000000,4.000000,4.000000,4.000000,4.000000,4.000000,4.000000,4.000000,4.000000,4.000000,4.000000,4.000000,4.000000,4.000000,100.000000,,,,,,,,,,,,,,,,,,,,,,,,,,,,,,,,,,,,,,,,,,,,,,,,,,,,,,,,,,,,,,,,,,,,,,
1605155870.455704,122.000000,0.000000,4234.358887,4234.102539,4231.410156,4331.153809,4205.897461,4201.410156,4220.897461,4216.794922,4278.717773,4212.051270,4439.358887,4187.307617,4246.538574,4220.384766,2828.000000,4.000000,,,,0.000000,4.000000,4.000000,4.000000,4.000000,4.000000,4.000000,4.000000,4.000000,4.000000,4.000000,4.000000,4.000000,4.000000,4.000000,100.000000,,,,,,,,,,,,,,,,,,,,,,,,,,,,,,,,,,,,,,,,,,,,,,,,,,,,,,,,,,,,,,,,,,,,,,
1605155870.463486,123.000000,0.000000,4229.871582,4220.256348,4223.717773,4306.922852,4208.589844,4199.615234,4227.436035,4215.769043,4280.000000,4203.461426,4401.410156,4185.128418,4248.205078,4215.384766,2687.000000,4.000000,,,,0.000000,4.000000,4.000000,4.000000,4.000000,4.000000,4.000000,4.000000,4.000000,4.000000,4.000000,4.000000,4.000000,4.000000,4.000000,100.000000,,,,,,,,,,,,,,,,,,,,,,,,,,,,,,,,,,,,,,,,,,,,,,,,,,,,,,,,,,,,,,,,,,,,,,
1605155870.471367,124.000000,0.000000,4240.897461,4222.307617,4230.128418,4331.922852,4207.436035,4203.333496,4231.922852,4215.897461,4282.307617,4211.410156,4432.179688,4189.615234,4259.871582,4211.153809,11619.000000,4.000000,,,,0.000000,4.000000,4.000000,4.000000,4.000000,4.000000,4.000000,4.000000,4.000000,4.000000,4.000000,4.000000,4.000000,4.000000,4.000000,100.000000,,,,,,,,,,,,,,,,,,,,,,,,,,,,,,,,,,,,,,,,,,,,,,,,,,,,,,,,,,,,,,,,,,,,,,
1605155870.479148,125.000000,0.000000,4250.128418,4218.205078,4231.794922,4335.000000,4208.846191,4205.128418,4229.871582,4216.025879,4280.641113,4216.538574,4439.102539,4185.000000,4255.641113,4211.025879,3117.000000,4.000000,,,,0.000000,4.000000,4.000000,4.000000,4.000000,4.000000,4.000000,4.000000,4.000000,4.000000,4.000000,4.000000,4.000000,4.000000,4.000000,100.000000,,,,,,,,,,,,,,,,,,,,,,,,,,,,,,,,,,,,,,,,,,,,,,,,,,,,,,,,,,,,,,,,,,,,,,
1605155870.487029,126.000000,0.000000,4261.922852,4208.333496,4234.102539,4316.025879,4204.358887,4197.948730,4223.205078,4213.461426,4278.333496,4205.384766,4400.384766,4189.487305,4238.589844,4217.692383,2828.000000,4.000000,,,,0.000000,4.000000,4.000000,4.000000,4.000000,4.000000,4.000000,4.000000,4.000000,4.000000,4.000000,4.000000,4.000000,4.000000,4.000000,100.000000,,,,,,,,,,,,,,,,,,,,,,,,,,,,,,,,,,,,,,,,,,,,,,,,,,,,,,,,,,,,,,,,,,,,,,
1605155870.494810,127.000000,0.000000,4263.333496,4212.436035,4242.692383,4321.025879,4206.153809,4197.307617,4223.974121,4212.948730,4278.846191,4213.461426,4417.948730,4198.077148,4237.179688,4211.794922,54.000000,4.000000,,,,0.000000,4.000000,4.000000,4.000000,4.000000,4.000000,4.000000,4.000000,4.000000,4.000000,4.000000,4.000000,4.000000,4.000000,4.000000,100.000000,,,,,,,,,,,,,,,,,,,,,,,,,,,,,,,,,,,,,,,,,,,,,,,,,,,,,,,,,,,,,,,,,,,,,,
1605155870.502692,0.000000,0.000000,4256.922852,4213.205078,4240.512695,4316.538574,4217.307617,4205.000000,4229.487305,4214.743652,4282.692383,4241.538574,4454.230957,4192.179688,4261.538574,4201.025879,2962.000000,4.000000,,,,0.000000,4.000000,4.000000,4.000000,4.000000,4.000000,4.000000,4.000000,4.000000,4.000000,4.000000,4.000000,4.000000,4.000000,4.000000,100.000000,,,,,,,,,,,,,,,,,,,,,,,,,,,,,,,,,,,,,,,,,,,,,,,,,,,,,,,,,,,,,,,,,,,,,,
1605155870.510473,1.000000,0.000000,4257.436035,4221.025879,4235.897461,4308.717773,4225.128418,4205.641113,4235.769043,4218.846191,4283.333496,4237.179688,4456.794922,4192.563965,4272.948730,4210.128418,3115.000000,4.000000,,,,0.000000,4.000000,4.000000,4.000000,4.000000,4.000000,4.000000,4.000000,4.000000,4.000000,4.000000,4.000000,4.000000,4.000000,4.000000,100.000000,,,,,,,,,,,,,,,,,,,,,,,,,,,,,,,,,,,,,,,,,,,,,,,,,,,,,,,,,,,,,,,,,,,,,,
1605155870.518354,2.000000,0.000000,4252.051270,4239.871582,4247.179688,4331.794922,4228.974121,4201.666504,4238.846191,4219.102539,4280.897461,4212.051270,4462.563965,4204.615234,4268.589844,4221.025879,2586.000000,4.000000,,,,0.000000,4.000000,4.000000,4.000000,4.000000,4.000000,4.000000,4.000000,4.000000,4.000000,4.000000,4.000000,4.000000,4.000000,4.000000,100.000000,,,,,,,,,,,,,,,,,,,,,,,,,,,,,,,,,,,,,,,,,,,,,,,,,,,,,,,,,,,,,,,,,,,,,,
