title:club, start timestamp:1605176588.540698, stop timestamp:1605176650.181420, headset type:EPOCPLUS, headset serial:3B9AEC95, headset firmware:625, channels:108, sampling rate:eeg_128;pow_8, samples:7822      , version:2.0
Timestamp,EEG.Counter,EEG.Interpolated,EEG.AF3,EEG.F7,EEG.F3,EEG.FC5,EEG.T7,EEG.P7,EEG.O1,EEG.O2,EEG.P8,EEG.T8,EEG.FC6,EEG.F4,EEG.F8,EEG.AF4,EEG.RawCq,EEG.Battery,MarkerIndex,MarkerType,MarkerValueInt,EEG.MarkerHardware,CQ.AF3,CQ.F7,CQ.F3,CQ.FC5,CQ.T7,CQ.P7,CQ.O1,CQ.O2,CQ.P8,CQ.T8,CQ.FC6,CQ.F4,CQ.F8,CQ.AF4,CQ.Overall,POW.AF3.Theta,POW.AF3.Alpha,POW.AF3.BetaL,POW.AF3.BetaH,POW.AF3.Gamma,POW.F7.Theta,POW.F7.Alpha,POW.F7.BetaL,POW.F7.BetaH,POW.F7.Gamma,POW.F3.Theta,POW.F3.Alpha,POW.F3.BetaL,POW.F3.BetaH,POW.F3.Gamma,POW.FC5.Theta,POW.FC5.Alpha,POW.FC5.BetaL,POW.FC5.BetaH,POW.FC5.Gamma,POW.T7.Theta,POW.T7.Alpha,POW.T7.BetaL,POW.T7.BetaH,POW.T7.Gamma,POW.P7.Theta,POW.P7.Alpha,POW.P7.BetaL,POW.P7.BetaH,POW.P7.Gamma,POW.O1.Theta,POW.O1.Alpha,POW.O1.BetaL,POW.O1.BetaH,POW.O1.Gamma,POW.O2.Theta,POW.O2.Alpha,POW.O2.BetaL,POW.O2.BetaH,POW.O2.Gamma,POW.P8.Theta,POW.P8.Alpha,POW.P8.BetaL,POW.P8.BetaH,POW.P8.Gamma,POW.T8.Theta,POW.T8.Alpha,POW.T8.BetaL,POW.T8.BetaH,POW.T8.Gamma,POW.FC6.Theta,POW.FC6.Alpha,POW.FC6.BetaL,POW.FC6.BetaH,POW.FC6.Gamma,POW.F4.Theta,POW.F4.Alpha,POW.F4.BetaL,POW.F4.BetaH,POW.F4.Gamma,POW.F8.Theta,POW.F8.Alpha,POW.F8.BetaL,POW.F8.BetaH,POW.F8.Gamma,POW.AF4.Theta,POW.AF4.Alpha,POW.AF4.BetaL,POW.AF4.BetaH,POW.AF4.Gamma
1605176588.540698,81.000000,0.000000,4157.179688,4158.717773,4173.333496,4170.512695,4162.563965,4166.410156,4156.538574,4160.641113,4154.743652,4206.538574,4138.974121,4199.615234,4160.769043,4124.743652,2347.000000,4.000000,,,,0.000000,4.000000,4.000000,4.000000,4.000000,4.000000,4.000000,4.000000,4.000000,4.000000,4.000000,4.000000,4.000000,4.000000,4.000000,100.000000,,,,,,,,,,,,,,,,,,,,,,,,,,,,,,,,,,,,,,,,,,,,,,,,,,,,,,,,,,,,,,,,,,,,,,
1605176588.548479,82.000000,0.000000,4147.179688,4150.128418,4159.743652,4163.461426,4154.358887,4159.871582,4141.538574,4146.282227,4146.153809,4187.563965,4131.538574,4188.205078,4156.922852,4116.025879,3226.000000,4.000000,,,,0.000000,4.000000,4.000000,4.000000,4.000000,4.000000,4.000000,4.000000,4.000000,4.000000,4.000000,4.000000,4.000000,4.000000,4.000000,100.000000,,,,,,,,,,,,,,,,,,,,,,,,,,,,,,,,,,,,,,,,,,,,,,,,,,,,,,,,,,,,,,,,,,,,,,
1605176588.556460,83.000000,0.000000,4143.333496,4139.871582,4154.102539,4155.256348,4148.717773,4150.897461,4136.410156,4136.922852,4138.717773,4170.641113,4122.307617,4183.333496,4151.922852,4112.692383,2882.000000,4.000000,,,,0.000000,4.000000,4.000000,4.000000,4.000000,4.000000,4.000000,4.000000,4.000000,4.000000,4.000000,4.000000,4.000000,4.000000,4.000000,100.000000,,,,,,,,,,,,,,,,,,,,,,,,,,,,,,,,,,,,,,,,,,,,,,,,,,,,,,,,,,,,,,,,,,,,,,
1605176588.564342,84.000000,0.000000,4146.794922,4142.179688,4156.410156,4151.666504,4150.641113,4149.358887,4136.025879,4135.256348,4141.410156,4163.333496,4118.846191,4187.563965,4154.358887,4117.692383,2187.000000,4.000000,,,,0.000000,4.000000,4.000000,4.000000,4.000000,4.000000,4.000000,4.000000,4.000000,4.000000,4.000000,4.000000,4.000000,4.000000,4.000000,100.000000,,,,,,,,,,,,,,,,,,,,,,,,,,,,,,,,,,,,,,,,,,,,,,,,,,,,,,,,,,,,,,,,,,,,,,
1605176588.572323,85.000000,0.000000,4157.179688,4153.589844,4159.230957,4157.179688,4152.948730,4158.974121,4141.794922,4142.307617,4148.461426,4170.256348,4122.820313,4195.384766,4167.436035,4125.128418,2347.000000,4.000000,,,,0.000000,4.000000,4.000000,4.000000,4.000000,4.000000,4.000000,4.000000,4.000000,4.000000,4.000000,4.000000,4.000000,4.000000,4.000000,100.000000,,,,,,,,,,,,,,,,,,,,,,,,,,,,,,,,,,,,,,,,,,,,,,,,,,,,,,,,,,,,,,,,,,,,,,
1605176588.580204,86.000000,0.000000,4161.153809,4160.769043,4167.051270,4166.282227,4152.692383,4165.512695,4149.102539,4147.307617,4148.717773,4184.102539,4130.128418,4200.000000,4175.641113,4131.153809,3226.000000,4.000000,,,,0.000000,4.000000,4.000000,4.000000,4.000000,4.000000,4.000000,4.000000,4.000000,4.000000,4.000000,4.000000,4.000000,4.000000,4.000000,100.000000,,,,,,,,,,,,,,,,,,,,,,,,,,,,,,,,,,,,,,,,,,,,,,,,,,,,,,,,,,,,,,,,,,,,,,
1605176588.588185,87.000000,0.000000,4163.846191,4167.307617,4176.025879,4171.538574,4154.871582,4165.641113,4147.436035,4141.282227,4146.282227,4195.384766,4137.563965,4202.307617,4177.051270,4136.025879,2882.000000,4.000000,,,,0.000000,4.000000,4.000000,4.000000,4.000000,4.000000,4.000000,4.000000,4.000000,4.000000,4.000000,4.000000,4.000000,4.000000,4.000000,100.000000,,,,,,,,,,,,,,,,,,,,,,,,,,,,,,,,,,,,,,,,,,,,,,,,,,,,,,,,,,,,,,,,,,,,,,
1605176588.596066,88.000000,0.000000,4163.846191,4171.666504,4171.922852,4166.410156,4157.563965,4165.000000,4141.538574,4138.461426,4148.846191,4197.563965,4138.846191,4202.179688,4174.871582,4135.256348,2187.000000,4.000000,,,,0.000000,4.000000,4.000000,4.000000,4.000000,4.000000,4.000000,4.000000,4.000000,4.000000,4.000000,4.000000,4.000000,4.000000,4.000000,100.000000,9.234120,0.722867,0.620204,0.786023,0.329112,1.022716,0.806693,0.826095,0.485029,0.342677,0.919267,0.521541,0.642359,0.608920,0.420513,0.444347,0.584103,0.738649,0.726414,0.532188,0.236503,0.264626,0.151274,0.124329,0.166987,0.460108,0.380362,0.220733,0.156793,0.244695,1.436707,1.257414,0.701777,0.468551,0.370723,1.076140,1.187561,0.442698,0.259454,0.275908,0.129015,0.126555,0.120809,0.080163,0.075921,4.296386,3.294117,1.421893,0.893497,0.522324,0.896158,0.562867,0.334289,0.208494,0.161907,0.489909,0.421210,0.216135,0.211728,0.163548,0.501117,0.990788,0.377541,0.238324,0.280232,1.556846,0.451833,0.198069,0.176604,0.265615
1605176588.604046,89.000000,0.000000,4147.179688,4158.461426,4157.051270,4151.538574,4158.205078,4157.820313,4131.922852,4137.051270,4146.922852,4181.794922,4127.563965,4196.410156,4162.563965,4126.282227,2347.000000,4.000000,,,,0.000000,4.000000,4.000000,4.000000,4.000000,4.000000,4.000000,4.000000,4.000000,4.000000,4.000000,4.000000,4.000000,4.000000,4.000000,100.000000,,,,,,,,,,,,,,,,,,,,,,,,,,,,,,,,,,,,,,,,,,,,,,,,,,,,,,,,,,,,,,,,,,,,,,
1605176588.611927,90.000000,0.000000,4140.512695,4148.205078,4153.846191,4153.846191,4156.538574,4152.820313,4129.102539,4133.974121,4142.948730,4173.846191,4122.563965,4193.333496,4156.794922,4121.922852,3226.000000,4.000000,,,,0.000000,4.000000,4.000000,4.000000,4.000000,4.000000,4.000000,4.000000,4.000000,4.000000,4.000000,4.000000,4.000000,4.000000,4.000000,100.000000,,,,,,,,,,,,,,,,,,,,,,,,,,,,,,,,,,,,,,,,,,,,,,,,,,,,,,,,,,,,,,,,,,,,,,
1605176588.619708,91.000000,0.000000,4151.922852,4151.282227,4163.461426,4170.384766,4153.333496,4157.820313,4137.307617,4137.051270,4144.615234,4181.794922,4130.128418,4196.666504,4162.820313,4129.615234,2882.000000,4.000000,,,,0.000000,4.000000,4.000000,4.000000,4.000000,4.000000,4.000000,4.000000,4.000000,4.000000,4.000000,4.000000,4.000000,4.000000,4.000000,100.000000,,,,,,,,,,,,,,,,,,,,,,,,,,,,,,,,,,,,,,,,,,,,,,,,,,,,,,,,,,,,,,,,,,,,,,
1605176588.627589,92.000000,0.000000,4151.922852,4153.717773,4167.051270,4169.487305,4155.384766,4161.282227,4146.025879,4144.615234,4146.410156,4183.461426,4129.743652,4199.230957,4163.589844,4134.230957,2187.000000,4.000000,,,,0.000000,4.000000,4.000000,4.000000,4.000000,4.000000,4.000000,4.000000,4.000000,4.000000,4.000000,4.000000,4.000000,4.000000,4.000000,100.000000,,,,,,,,,,,,,,,,,,,,,,,,,,,,,,,,,,,,,,,,,,,,,,,,,,,,,,,,,,,,,,,,,,,,,,
1605176588.635370,93.000000,0.000000,4141.282227,4151.794922,4159.871582,4153.333496,4160.641113,4159.230957,4144.487305,4144.615234,4146.282227,4178.205078,4122.563965,4196.025879,4156.922852,4128.205078,2347.000000,4.000000,,,,0.000000,4.000000,4.000000,4.000000,4.000000,4.000000,4.000000,4.000000,4.000000,4.000000,4.000000,4.000000,4.000000,4.000000,4.000000,100.000000,,,,,,,,,,,,,,,,,,,,,,,,,,,,,,,,,,,,,,,,,,,,,,,,,,,,,,,,,,,,,,,,,,,,,,
1605176588.643251,94.000000,0.000000,4148.717773,4157.948730,4165.256348,4162.307617,4160.641113,4162.563965,4147.820313,4147.179688,4152.307617,4189.615234,4129.615234,4197.307617,4162.436035,4128.205078,3226.000000,4.000000,,,,0.000000,4.000000,4.000000,4.000000,4.000000,4.000000,4.000000,4.000000,4.000000,4.000000,4.000000,4.000000,4.000000,4.000000,4.000000,100.000000,,,,,,,,,,,,,,,,,,,,,,,,,,,,,,,,,,,,,,,,,,,,,,,,,,,,,,,,,,,,,,,,,,,,,,
1605176588.651032,95.000000,0.000000,4157.948730,4165.641113,4178.461426,4177.692383,4158.846191,4164.743652,4156.666504,4150.769043,4155.512695,4202.436035,4139.615234,4200.128418,4169.743652,4135.384766,2882.000000,4.000000,,,,0.000000,4.000000,4.000000,4.000000,4.000000,4.000000,4.000000,4.000000,4.000000,4.000000,4.000000,4.000000,4.000000,4.000000,4.000000,100.000000,,,,,,,,,,,,,,,,,,,,,,,,,,,,,,,,,,,,,,,,,,,,,,,,,,,,,,,,,,,,,,,,,,,,,,
1605176588.658913,96.000000,0.000000,4152.051270,4164.743652,4174.358887,4168.461426,4161.538574,4162.051270,4157.692383,4146.282227,4148.333496,4198.077148,4135.769043,4197.948730,4162.948730,4138.974121,2187.000000,4.000000,,,,0.000000,4.000000,4.000000,4.000000,4.000000,4.000000,4.000000,4.000000,4.000000,4.000000,4.000000,4.000000,4.000000,4.000000,4.000000,100.000000,,,,,,,,,,,,,,,,,,,,,,,,,,,,,,,,,,,,,,,,,,,,,,,,,,,,,,,,,,,,,,,,,,,,,,
1605176588.666694,97.000000,0.000000,4141.410156,4159.102539,4159.487305,4158.205078,4159.615234,4159.358887,4150.000000,4138.077148,4143.205078,4186.538574,4128.077148,4191.153809,4151.282227,4128.205078,2347.000000,4.000000,,,,0.000000,4.000000,4.000000,4.000000,4.000000,4.000000,4.000000,4.000000,4.000000,4.000000,4.000000,4.000000,4.000000,4.000000,4.000000,100.000000,,,,,,,,,,,,,,,,,,,,,,,,,,,,,,,,,,,,,,,,,,,,,,,,,,,,,,,,,,,,,,,,,,,,,,
1605176588.674675,98.000000,0.000000,4132.307617,4151.922852,4150.512695,4156.282227,4153.717773,4156.794922,4136.025879,4127.820313,4143.717773,4172.692383,4123.846191,4184.230957,4147.307617,4112.820313,3226.000000,4.000000,,,,0.000000,4.000000,4.000000,4.000000,4.000000,4.000000,4.000000,4.000000,4.000000,4.000000,4.000000,4.000000,4.000000,4.000000,4.000000,100.000000,,,,,,,,,,,,,,,,,,,,,,,,,,,,,,,,,,,,,,,,,,,,,,,,,,,,,,,,,,,,,,,,,,,,,,
1605176588.682556,99.000000,0.000000,4129.230957,4141.538574,4142.179688,4147.307617,4152.307617,4149.743652,4121.538574,4116.410156,4139.102539,4156.666504,4118.077148,4181.025879,4148.717773,4107.692383,2882.000000,4.000000,,,,0.000000,4.000000,4.000000,4.000000,4.000000,4.000000,4.000000,4.000000,4.000000,4.000000,4.000000,4.000000,4.000000,4.000000,4.000000,100.000000,,,,,,,,,,,,,,,,,,,,,,,,,,,,,,,,,,,,,,,,,,,,,,,,,,,,,,,,,,,,,,,,,,,,,,
1605176588.690538,100.000000,0.000000,4134.102539,4143.333496,4146.538574,4151.666504,4151.922852,4152.692383,4125.256348,4122.436035,4137.436035,4156.666504,4118.461426,4186.153809,4153.461426,4119.358887,2187.000000,4.000000,,,,0.000000,4.000000,4.000000,4.000000,4.000000,4.000000,4.000000,4.000000,4.000000,4.000000,4.000000,4.000000,4.000000,4.000000,4.000000,100.000000,,,,,,,,,,,,,,,,,,,,,,,,,,,,,,,,,,,,,,,,,,,,,,,,,,,,,,,,,,,,,,,,,,,,,,
1605176588.698419,101.000000,0.000000,4138.461426,4158.077148,4163.589844,4169.871582,4149.743652,4160.384766,4136.538574,4135.256348,4141.153809,4171.153809,4124.871582,4192.051270,4161.025879,4132.051270,2347.000000,4.000000,,,,0.000000,4.000000,4.000000,4.000000,4.000000,4.000000,4.000000,4.000000,4.000000,4.000000,4.000000,4.000000,4.000000,4.000000,4.000000,100.000000,,,,,,,,,,,,,,,,,,,,,,,,,,,,,,,,,,,,,,,,,,,,,,,,,,,,,,,,,,,,,,,,,,,,,,
1605176588.706400,102.000000,0.000000,4135.641113,4156.666504,4156.794922,4162.179688,4148.461426,4151.282227,4127.820313,4127.436035,4142.563965,4161.794922,4119.487305,4186.666504,4155.897461,4127.692383,3226.000000,4.000000,,,,0.000000,4.000000,4.000000,4.000000,4.000000,4.000000,4.000000,4.000000,4.000000,4.000000,4.000000,4.000000,4.000000,4.000000,4.000000,100.000000,,,,,,,,,,,,,,,,,,,,,,,,,,,,,,,,,,,,,,,,,,,,,,,,,,,,,,,,,,,,,,,,,,,,,,
1605176588.714281,103.000000,0.000000,4126.538574,4135.769043,4135.512695,4132.820313,4147.820313,4140.256348,4114.358887,4118.461426,4138.333496,4138.461426,4108.461426,4179.487305,4141.538574,4113.974121,2882.000000,4.000000,,,,0.000000,4.000000,4.000000,4.000000,4.000000,4.000000,4.000000,4.000000,4.000000,4.000000,4.000000,4.000000,4.000000,4.000000,4.000000,100.000000,,,,,,,,,,,,,,,,,,,,,,,,,,,,,,,,,,,,,,,,,,,,,,,,,,,,,,,,,,,,,,,,,,,,,,
1605176588.722262,104.000000,0.000000,4124.230957,4129.358887,4143.205078,4126.282227,4146.666504,4148.077148,4127.692383,4129.358887,4137.563965,4138.205078,4112.692383,4185.512695,4144.487305,4115.512695,2187.000000,4.000000,,,,0.000000,4.000000,4.000000,4.000000,4.000000,4.000000,4.000000,4.000000,4.000000,4.000000,4.000000,4.000000,4.000000,4.000000,4.000000,100.000000,7.720696,0.540821,0.753747,0.751198,0.321992,0.936048,0.642475,0.855100,0.524045,0.330562,0.858181,0.383083,0.738308,0.682832,0.429550,0.402267,0.457197,0.817486,0.825003,0.537275,0.231769,0.220047,0.150279,0.113584,0.178417,0.390524,0.374830,0.273793,0.171948,0.264216,1.301422,1.184194,0.671555,0.508429,0.389325,0.946284,1.111662,0.482943,0.330055,0.287336,0.110335,0.110605,0.146824,0.088707,0.089089,3.365159,2.813840,1.595710,0.886893,0.558157,0.682750,0.489989,0.362600,0.215224,0.179055,0.501699,0.358537,0.270036,0.242796,0.196175,0.531943,0.782453,0.401397,0.257219,0.279606,1.289506,0.346401,0.236374,0.194214,0.280671
1605176588.730143,105.000000,0.000000,4132.051270,4141.538574,4157.948730,4138.974121,4147.051270,4154.230957,4138.333496,4132.179688,4139.358887,4146.410156,4116.410156,4189.487305,4153.717773,4131.410156,2347.000000,4.000000,,,,0.000000,4.000000,4.000000,4.000000,4.000000,4.000000,4.000000,4.000000,4.000000,4.000000,4.000000,4.000000,4.000000,4.000000,4.000000,100.000000,,,,,,,,,,,,,,,,,,,,,,,,,,,,,,,,,,,,,,,,,,,,,,,,,,,,,,,,,,,,,,,,,,,,,,
1605176588.738124,106.000000,0.000000,4131.410156,4142.307617,4146.410156,4143.333496,4145.897461,4144.871582,4118.974121,4116.794922,4139.358887,4139.230957,4106.794922,4177.436035,4141.794922,4125.256348,3226.000000,4.000000,,,,0.000000,4.000000,4.000000,4.000000,4.000000,4.000000,4.000000,4.000000,4.000000,4.000000,4.000000,4.000000,4.000000,4.000000,4.000000,100.000000,,,,,,,,,,,,,,,,,,,,,,,,,,,,,,,,,,,,,,,,,,,,,,,,,,,,,,,,,,,,,,,,,,,,,,
1605176588.746005,107.000000,0.000000,4123.461426,4135.512695,4138.589844,4148.846191,4145.769043,4144.102539,4109.743652,4114.102539,4138.846191,4131.922852,4104.102539,4170.641113,4131.282227,4108.974121,2882.000000,4.000000,,,,0.000000,4.000000,4.000000,4.000000,4.000000,4.000000,4.000000,4.000000,4.000000,4.000000,4.000000,4.000000,4.000000,4.000000,4.000000,100.000000,,,,,,,,,,,,,,,,,,,,,,,,,,,,,,,,,,,,,,,,,,,,,,,,,,,,,,,,,,,,,,,,,,,,,,
1605176588.753986,108.000000,0.000000,4122.307617,4130.256348,4143.461426,4145.641113,4145.512695,4144.358887,4111.794922,4115.769043,4133.589844,4122.820313,4104.102539,4175.897461,4136.153809,4111.538574,2187.000000,4.000000,,,,0.000000,4.000000,4.000000,4.000000,4.000000,4.000000,4.000000,4.000000,4.000000,4.000000,4.000000,4.000000,4.000000,4.000000,4.000000,100.000000,,,,,,,,,,,,,,,,,,,,,,,,,,,,,,,,,,,,,,,,,,,,,,,,,,,,,,,,,,,,,,,,,,,,,,
1605176588.761867,109.000000,0.000000,4121.153809,4123.205078,4133.461426,4124.615234,4144.230957,4134.230957,4099.615234,4105.128418,4127.436035,4105.128418,4092.564209,4172.307617,4134.230957,4109.358887,2347.000000,4.000000,,,,0.000000,4.000000,4.000000,4.000000,4.000000,4.000000,4.000000,4.000000,4.000000,4.000000,4.000000,4.000000,4.000000,4.000000,4.000000,100.000000,,,,,,,,,,,,,,,,,,,,,,,,,,,,,,,,,,,,,,,,,,,,,,,,,,,,,,,,,,,,,,,,,,,,,,
1605176588.769648,110.000000,0.000000,4116.282227,4125.384766,4122.820313,4119.871582,4142.436035,4137.563965,4101.282227,4108.589844,4131.538574,4101.538574,4091.794922,4169.230957,4134.102539,4102.692383,3226.000000,4.000000,,,,0.000000,4.000000,4.000000,4.000000,4.000000,4.000000,4.000000,4.000000,4.000000,4.000000,4.000000,4.000000,4.000000,4.000000,4.000000,100.000000,,,,,,,,,,,,,,,,,,,,,,,,,,,,,,,,,,,,,,,,,,,,,,,,,,,,,,,,,,,,,,,,,,,,,,
1605176588.777529,111.000000,0.000000,4130.128418,4140.000000,4140.512695,4147.307617,4142.179688,4151.410156,4126.153809,4129.358887,4140.128418,4121.410156,4106.410156,4177.948730,4150.000000,4116.282227,2882.000000,4.000000,,,,0.000000,4.000000,4.000000,4.000000,4.000000,4.000000,4.000000,4.000000,4.000000,4.000000,4.000000,4.000000,4.000000,4.000000,4.000000,100.000000,,,,,,,,,,,,,,,,,,,,,,,,,,,,,,,,,,,,,,,,,,,,,,,,,,,,,,,,,,,,,,,,,,,,,,
1605176588.785310,112.000000,0.000000,4140.128418,4140.641113,4149.871582,4155.128418,4147.948730,4146.282227,4127.563965,4129.487305,4137.948730,4128.077148,4107.051270,4181.025879,4152.436035,4126.666504,2187.000000,4.000000,,,,0.000000,4.000000,4.000000,4.000000,4.000000,4.000000,4.000000,4.000000,4.000000,4.000000,4.000000,4.000000,4.000000,4.000000,4.000000,100.000000,,,,,,,,,,,,,,,,,,,,,,,,,,,,,,,,,,,,,,,,,,,,,,,,,,,,,,,,,,,,,,,,,,,,,,
1605176588.793191,113.000000,0.000000,4129.615234,4138.717773,4145.000000,4145.384766,4149.102539,4143.846191,4121.666504,4126.410156,4136.922852,4126.794922,4102.307617,4186.538574,4150.000000,4130.256348,2347.000000,4.000000,,,,0.000000,4.000000,4.000000,4.000000,4.000000,4.000000,4.000000,4.000000,4.000000,4.000000,4.000000,4.000000,4.000000,4.000000,4.000000,100.000000,,,,,,,,,,,,,,,,,,,,,,,,,,,,,,,,,,,,,,,,,,,,,,,,,,,,,,,,,,,,,,,,,,,,,,
1605176588.800972,114.000000,0.000000,4128.461426,4147.563965,4150.000000,4152.051270,4146.025879,4156.666504,4138.333496,4140.512695,4143.846191,4146.666504,4112.820313,4197.820313,4160.769043,4134.358887,3226.000000,4.000000,,,,0.000000,4.000000,4.000000,4.000000,4.000000,4.000000,4.000000,4.000000,4.000000,4.000000,4.000000,4.000000,4.000000,4.000000,4.000000,100.000000,,,,,,,,,,,,,,,,,,,,,,,,,,,,,,,,,,,,,,,,,,,,,,,,,,,,,,,,,,,,,,,,,,,,,,
1605176588.808853,115.000000,0.000000,4128.205078,4140.256348,4146.025879,4148.846191,4149.102539,4157.436035,4140.000000,4137.051270,4142.179688,4156.153809,4116.666504,4188.846191,4159.487305,4117.948730,2882.000000,4.000000,,,,0.000000,4.000000,4.000000,4.000000,4.000000,4.000000,4.000000,4.000000,4.000000,4.000000,4.000000,4.000000,4.000000,4.000000,4.000000,100.000000,,,,,,,,,,,,,,,,,,,,,,,,,,,,,,,,,,,,,,,,,,,,,,,,,,,,,,,,,,,,,,,,,,,,,,
1605176588.816634,116.000000,0.000000,4115.897461,4135.512695,4145.256348,4146.794922,4154.102539,4155.384766,4131.922852,4130.000000,4140.512695,4149.358887,4113.589844,4177.692383,4155.000000,4114.358887,2187.000000,4.000000,,,,0.000000,4.000000,4.000000,4.000000,4.000000,4.000000,4.000000,4.000000,4.000000,4.000000,4.000000,4.000000,4.000000,4.000000,4.000000,100.000000,,,,,,,,,,,,,,,,,,,,,,,,,,,,,,,,,,,,,,,,,,,,,,,,,,,,,,,,,,,,,,,,,,,,,,
1605176588.824515,117.000000,0.000000,4119.230957,4148.077148,4157.563965,4155.000000,4155.128418,4158.077148,4136.282227,4139.871582,4144.487305,4154.615234,4117.692383,4189.102539,4160.769043,4137.563965,2347.000000,4.000000,,,,0.000000,4.000000,4.000000,4.000000,4.000000,4.000000,4.000000,4.000000,4.000000,4.000000,4.000000,4.000000,4.000000,4.000000,4.000000,100.000000,,,,,,,,,,,,,,,,,,,,,,,,,,,,,,,,,,,,,,,,,,,,,,,,,,,,,,,,,,,,,,,,,,,,,,
1605176588.832296,118.000000,0.000000,4128.717773,4142.179688,4151.153809,4145.128418,4153.077148,4150.128418,4130.512695,4135.384766,4141.410156,4150.769043,4117.563965,4189.615234,4155.384766,4129.358887,3226.000000,4.000000,,,,0.000000,4.000000,4.000000,4.000000,4.000000,4.000000,4.000000,4.000000,4.000000,4.000000,4.000000,4.000000,4.000000,4.000000,4.000000,100.000000,,,,,,,,,,,,,,,,,,,,,,,,,,,,,,,,,,,,,,,,,,,,,,,,,,,,,,,,,,,,,,,,,,,,,,
1605176588.840177,119.000000,0.000000,4122.307617,4132.948730,4139.743652,4139.615234,4153.461426,4142.948730,4122.179688,4123.846191,4138.333496,4140.256348,4111.153809,4175.128418,4150.000000,4108.077148,2882.000000,4.000000,,,,0.000000,4.000000,4.000000,4.000000,4.000000,4.000000,4.000000,4.000000,4.000000,4.000000,4.000000,4.000000,4.000000,4.000000,4.000000,100.000000,,,,,,,,,,,,,,,,,,,,,,,,,,,,,,,,,,,,,,,,,,,,,,,,,,,,,,,,,,,,,,,,,,,,,,
1605176588.847958,120.000000,0.000000,4120.512695,4142.051270,4149.871582,4153.461426,4153.205078,4148.717773,4128.717773,4130.256348,4140.256348,4144.358887,4112.820313,4174.487305,4157.436035,4114.230957,2187.000000,4.000000,,,,0.000000,4.000000,4.000000,4.000000,4.000000,4.000000,4.000000,4.000000,4.000000,4.000000,4.000000,4.000000,4.000000,4.000000,4.000000,100.000000,5.628883,0.414200,0.942992,0.657080,0.308807,0.889412,0.475698,0.929636,0.536355,0.322135,0.761288,0.352393,0.954967,0.716364,0.443670,0.405759,0.387199,0.975670,0.934409,0.556915,0.237038,0.171692,0.144083,0.103296,0.177027,0.329022,0.366213,0.371754,0.185840,0.275547,1.132280,1.099843,0.691898,0.536330,0.413441,0.776085,0.997287,0.547905,0.390444,0.297784,0.110634,0.103233,0.172418,0.094918,0.102448,2.819715,2.193668,1.878646,0.857670,0.589645,0.598432,0.403487,0.415509,0.215771,0.191020,0.477234,0.307213,0.352284,0.263585,0.224578,0.581890,0.565161,0.443013,0.268477,0.280208,0.972310,0.289570,0.316102,0.202030,0.292747
1605176588.855839,121.000000,0.000000,4128.461426,4147.563965,4155.128418,4160.000000,4155.512695,4157.948730,4137.179688,4139.871582,4138.717773,4145.256348,4118.461426,4185.897461,4155.897461,4123.717773,2347.000000,4.000000,,,,0.000000,4.000000,4.000000,4.000000,4.000000,4.000000,4.000000,4.000000,4.000000,4.000000,4.000000,4.000000,4.000000,4.000000,4.000000,100.000000,,,,,,,,,,,,,,,,,,,,,,,,,,,,,,,,,,,,,,,,,,,,,,,,,,,,,,,,,,,,,,,,,,,,,,
1605176588.863620,122.000000,0.000000,4127.436035,4149.102539,4153.461426,4161.922852,4156.025879,4162.948730,4141.922852,4144.615234,4140.769043,4150.897461,4120.897461,4190.384766,4156.410156,4124.743652,3226.000000,4.000000,,,,0.000000,4.000000,4.000000,4.000000,4.000000,4.000000,4.000000,4.000000,4.000000,4.000000,4.000000,4.000000,4.000000,4.000000,4.000000,100.000000,,,,,,,,,,,,,,,,,,,,,,,,,,,,,,,,,,,,,,,,,,,,,,,,,,,,,,,,,,,,,,,,,,,,,,
1605176588.871601,123.000000,0.000000,4126.538574,4156.538574,4164.615234,4165.641113,4153.205078,4162.436035,4148.077148,4151.538574,4147.948730,4173.333496,4123.974121,4190.128418,4171.538574,4126.922852,2882.000000,4.000000,,,,0.000000,4.000000,4.000000,4.000000,4.000000,4.000000,4.000000,4.000000,4.000000,4.000000,4.000000,4.000000,4.000000,4.000000,4.000000,100.000000,,,,,,,,,,,,,,,,,,,,,,,,,,,,,,,,,,,,,,,,,,,,,,,,,,,,,,,,,,,,,,,,,,,,,,
1605176588.879482,124.000000,0.000000,4130.641113,4148.717773,4161.538574,4149.230957,4154.871582,4157.820313,4147.948730,4148.846191,4148.461426,4176.794922,4126.922852,4190.897461,4170.256348,4126.025879,2187.000000,4.000000,,,,0.000000,4.000000,4.000000,4.000000,4.000000,4.000000,4.000000,4.000000,4.000000,4.000000,4.000000,4.000000,4.000000,4.000000,4.000000,100.000000,,,,,,,,,,,,,,,,,,,,,,,,,,,,,,,,,,,,,,,,,,,,,,,,,,,,,,,,,,,,,,,,,,,,,,
1605176588.887463,125.000000,0.000000,4133.077148,4137.948730,4152.051270,4138.333496,4159.102539,4161.922852,4150.641113,4146.666504,4145.641113,4166.922852,4129.102539,4192.179688,4159.743652,4130.256348,2347.000000,4.000000,,,,0.000000,4.000000,4.000000,4.000000,4.000000,4.000000,4.000000,4.000000,4.000000,4.000000,4.000000,4.000000,4.000000,4.000000,4.000000,100.000000,,,,,,,,,,,,,,,,,,,,,,,,,,,,,,,,,,,,,,,,,,,,,,,,,,,,,,,,,,,,,,,,,,,,,,
1605176588.895344,126.000000,0.000000,4130.512695,4143.333496,4157.179688,4141.282227,4159.487305,4163.974121,4152.692383,4148.205078,4146.794922,4174.358887,4129.871582,4191.282227,4164.230957,4134.230957,3226.000000,4.000000,,,,0.000000,4.000000,4.000000,4.000000,4.000000,4.000000,4.000000,4.000000,4.000000,4.000000,4.000000,4.000000,4.000000,4.000000,4.000000,100.000000,,,,,,,,,,,,,,,,,,,,,,,,,,,,,,,,,,,,,,,,,,,,,,,,,,,,,,,,,,,,,,,,,,,,,,
1605176588.903325,127.000000,0.000000,4124.102539,4150.000000,4164.102539,4147.051270,4154.102539,4157.307617,4144.615234,4140.384766,4143.717773,4178.205078,4130.769043,4193.717773,4169.230957,4133.333496,53.000000,4.000000,,,,0.000000,4.000000,4.000000,4.000000,4.000000,4.000000,4.000000,4.000000,4.000000,4.000000,4.000000,4.000000,4.000000,4.000000,4.000000,100.000000,,,,,,,,,,,,,,,,,,,,,,,,,,,,,,,,,,,,,,,,,,,,,,,,,,,,,,,,,,,,,,,,,,,,,,
1605176588.911206,0.000000,0.000000,4131.410156,4163.333496,4173.461426,4174.358887,4153.589844,4162.179688,4152.948730,4145.384766,4145.384766,4187.436035,4139.615234,4201.410156,4176.153809,4143.589844,3758.000000,4.000000,,,,0.000000,4.000000,4.000000,4.000000,4.000000,4.000000,4.000000,4.000000,4.000000,4.000000,4.000000,4.000000,4.000000,4.000000,4.000000,100.000000,,,,,,,,,,,,,,,,,,,,,,,,,,,,,,,,,,,,,,,,,,,,,,,,,,,,,,,,,,,,,,,,,,,,,,
1605176588.918987,1.000000,0.000000,4134.102539,4164.358887,4173.461426,4180.641113,4155.769043,4166.153809,4159.487305,4148.461426,4149.615234,4196.282227,4139.615234,4197.692383,4174.615234,4139.230957,4035.000000,4.000000,,,,0.000000,4.000000,4.000000,4.000000,4.000000,4.000000,4.000000,4.000000,4.000000,4.000000,4.000000,4.000000,4.000000,4.000000,4.000000,100.000000,,,,,,,,,,,,,,,,,,,,,,,,,,,,,,,,,,,,,,,,,,,,,,,,,,,,,,,,,,,,,,,,,,,,,,
1605176588.926868,2.000000,0.000000,4121.025879,4148.846191,4160.128418,4154.743652,4157.307617,4160.256348,4144.487305,4136.794922,4145.641113,4182.820313,4129.102539,4185.769043,4157.307617,4121.922852,3774.000000,4.000000,,,,0.000000,4.000000,4.000000,4.000000,4.000000,4.000000,4.000000,4.000000,4.000000,4.000000,4.000000,4.000000,4.000000,4.000000,4.000000,100.000000,,,,,,,,,,,,,,,,,,,,,,,,,,,,,,,,,,,,,,,,,,,,,,,,,,,,,,,,,,,,,,,,,,,,,,
1605176588.934649,3.000000,0.000000,4117.307617,4141.794922,4151.410156,4145.256348,4158.333496,4155.769043,4133.717773,4131.794922,4141.282227,4170.641113,4126.282227,4182.692383,4149.230957,4121.282227,4223.000000,4.000000,,,,0.000000,4.000000,4.000000,4.000000,4.000000,4.000000,4.000000,4.000000,4.000000,4.000000,4.000000,4.000000,4.000000,4.000000,4.000000,100.000000,,,,,,,,,,,,,,,,,,,,,,,,,,,,,,,,,,,,,,,,,,,,,,,,,,,,,,,,,,,,,,,,,,,,,,
1605176588.942530,4.000000,0.000000,4121.025879,4145.641113,4150.769043,4150.000000,4158.461426,4159.102539,4137.820313,4135.897461,4142.179688,4173.333496,4127.179688,4185.384766,4159.615234,4127.179688,3476.000000,4.000000,,,,0.000000,4.000000,4.000000,4.000000,4.000000,4.000000,4.000000,4.000000,4.000000,4.000000,4.000000,4.000000,4.000000,4.000000,4.000000,100.000000,,,,,,,,,,,,,,,,,,,,,,,,,,,,,,,,,,,,,,,,,,,,,,,,,,,,,,,,,,,,,,,,,,,,,,
1605176588.950311,5.000000,0.000000,4120.384766,4149.743652,4156.666504,4151.794922,4161.282227,4165.512695,4141.025879,4137.692383,4146.538574,4178.333496,4127.948730,4192.692383,4166.922852,4130.769043,3432.000000,4.000000,,,,0.000000,4.000000,4.000000,4.000000,4.000000,4.000000,4.000000,4.000000,4.000000,4.000000,4.000000,4.000000,4.000000,4.000000,4.000000,100.000000,,,,,,,,,,,,,,,,,,,,,,,,,,,,,,,,,,,,,,,,,,,,,,,,,,,,,,,,,,,,,,,,,,,,,,
1605176588.958292,6.000000,0.000000,4126.410156,4155.641113,4165.512695,4161.410156,4167.051270,4168.846191,4142.307617,4142.563965,4152.051270,4188.974121,4136.410156,4196.538574,4168.589844,4138.205078,4066.000000,4.000000,,,,0.000000,4.000000,4.000000,4.000000,4.000000,4.000000,4.000000,4.000000,4.000000,4.000000,4.000000,4.000000,4.000000,4.000000,4.000000,100.000000,,,,,,,,,,,,,,,,,,,,,,,,,,,,,,,,,,,,,,,,,,,,,,,,,,,,,,,,,,,,,,,,,,,,,,
1605176588.966173,7.000000,0.000000,4130.000000,4154.871582,4157.563965,4157.692383,4167.820313,4162.436035,4141.794922,4143.717773,4152.051270,4189.615234,4139.487305,4187.820313,4165.641113,4133.333496,3562.000000,4.000000,,,,0.000000,4.000000,4.000000,4.000000,4.000000,4.000000,4.000000,4.000000,4.000000,4.000000,4.000000,4.000000,4.000000,4.000000,4.000000,100.000000,,,,,,,,,,,,,,,,,,,,,,,,,,,,,,,,,,,,,,,,,,,,,,,,,,,,,,,,,,,,,,,,,,,,,,
1605176588.974154,8.000000,0.000000,4119.487305,4149.102539,4148.846191,4148.205078,4161.538574,4160.256348,4142.179688,4140.897461,4149.102539,4181.922852,4133.589844,4186.666504,4161.666504,4125.897461,1168.000000,4.000000,,,,0.000000,4.000000,4.000000,4.000000,4.000000,4.000000,4.000000,4.000000,4.000000,4.000000,4.000000,4.000000,4.000000,4.000000,4.000000,100.000000,3.397135,0.377950,1.184682,0.540012,0.292715,0.833551,0.340524,1.045534,0.525808,0.317976,0.632304,0.414469,1.238824,0.709712,0.454894,0.440265,0.372050,1.158692,1.046442,0.583113,0.268640,0.129473,0.137482,0.093783,0.163635,0.294774,0.364385,0.488334,0.197021,0.275010,1.070568,1.025493,0.754061,0.548325,0.433843,0.658441,0.910474,0.623440,0.433509,0.304438,0.118092,0.106237,0.188225,0.099887,0.113973,2.654202,1.602356,2.176012,0.830323,0.607640,0.581286,0.321013,0.477271,0.216110,0.194646,0.429142,0.282086,0.445181,0.271005,0.243327,0.615193,0.383745,0.492166,0.272395,0.284074,0.681642,0.285146,0.428161,0.201648,0.304343
1605176588.982035,9.000000,0.000000,4113.717773,4155.897461,4164.487305,4163.461426,4161.282227,4171.410156,4156.538574,4151.153809,4152.307617,4195.000000,4139.871582,4197.051270,4168.717773,4136.410156,4379.000000,4.000000,,,,0.000000,4.000000,4.000000,4.000000,4.000000,4.000000,4.000000,4.000000,4.000000,4.000000,4.000000,4.000000,4.000000,4.000000,4.000000,100.000000,,,,,,,,,,,,,,,,,,,,,,,,,,,,,,,,,,,,,,,,,,,,,,,,,,,,,,,,,,,,,,,,,,,,,,
1605176588.990017,10.000000,0.000000,4119.102539,4161.794922,4173.717773,4172.820313,4165.384766,4174.102539,4164.871582,4157.563965,4155.256348,4207.563965,4150.256348,4197.692383,4173.205078,4139.615234,3336.000000,4.000000,,,,0.000000,4.000000,4.000000,4.000000,4.000000,4.000000,4.000000,4.000000,4.000000,4.000000,4.000000,4.000000,4.000000,4.000000,4.000000,100.000000,,,,,,,,,,,,,,,,,,,,,,,,,,,,,,,,,,,,,,,,,,,,,,,,,,,,,,,,,,,,,,,,,,,,,,
1605176588.997898,11.000000,0.000000,4121.153809,4155.000000,4158.846191,4159.615234,4165.641113,4163.077148,4151.025879,4146.922852,4149.615234,4195.769043,4142.948730,4189.871582,4162.051270,4130.128418,2865.000000,4.000000,,,,0.000000,4.000000,4.000000,4.000000,4.000000,4.000000,4.000000,4.000000,4.000000,4.000000,4.000000,4.000000,4.000000,4.000000,4.000000,100.000000,,,,,,,,,,,,,,,,,,,,,,,,,,,,,,,,,,,,,,,,,,,,,,,,,,,,,,,,,,,,,,,,,,,,,,
1605176589.005879,12.000000,0.000000,4120.512695,4150.000000,4150.128418,4152.307617,4167.692383,4158.461426,4141.666504,4141.025879,4149.871582,4181.538574,4132.692383,4188.717773,4156.794922,4130.769043,2189.000000,4.000000,,,,0.000000,4.000000,4.000000,4.000000,4.000000,4.000000,4.000000,4.000000,4.000000,4.000000,4.000000,4.000000,4.000000,4.000000,4.000000,100.000000,,,,,,,,,,,,,,,,,,,,,,,,,,,,,,,,,,,,,,,,,,,,,,,,,,,,,,,,,,,,,,,,,,,,,,
1605176589.013760,13.000000,0.000000,4123.205078,4161.410156,4161.410156,4166.025879,4170.641113,4167.436035,4152.563965,4148.717773,4153.846191,4193.846191,4137.307617,4191.666504,4168.717773,4131.922852,2353.000000,4.000000,,,,0.000000,4.000000,4.000000,4.000000,4.000000,4.000000,4.000000,4.000000,4.000000,4.000000,4.000000,4.000000,4.000000,4.000000,4.000000,100.000000,,,,,,,,,,,,,,,,,,,,,,,,,,,,,,,,,,,,,,,,,,,,,,,,,,,,,,,,,,,,,,,,,,,,,,
1605176589.021741,14.000000,0.000000,4130.128418,4174.615234,4173.333496,4178.077148,4168.974121,4173.846191,4161.666504,4157.307617,4155.256348,4216.282227,4151.025879,4195.769043,4180.128418,4131.538574,3336.000000,4.000000,,,,0.000000,4.000000,4.000000,4.000000,4.000000,4.000000,4.000000,4.000000,4.000000,4.000000,4.000000,4.000000,4.000000,4.000000,4.000000,100.000000,,,,,,,,,,,,,,,,,,,,,,,,,,,,,,,,,,,,,,,,,,,,,,,,,,,,,,,,,,,,,,,,,,,,,,
1605176589.029622,15.000000,0.000000,4132.563965,4167.051270,4174.102539,4173.717773,4165.897461,4172.820313,4162.436035,4160.256348,4155.641113,4222.692383,4155.256348,4198.974121,4177.436035,4138.077148,2865.000000,4.000000,,,,0.000000,4.000000,4.000000,4.000000,4.000000,4.000000,4.000000,4.000000,4.000000,4.000000,4.000000,4.000000,4.000000,4.000000,4.000000,100.000000,,,,,,,,,,,,,,,,,,,,,,,,,,,,,,,,,,,,,,,,,,,,,,,,,,,,,,,,,,,,,,,,,,,,,,
1605176589.037603,16.000000,0.000000,4126.794922,4153.333496,4166.538574,4166.025879,4169.358887,4172.051270,4165.384766,4159.871582,4155.256348,4223.205078,4151.922852,4196.794922,4170.641113,4134.615234,0.000000,4.000000,,,,0.000000,4.000000,4.000000,4.000000,4.000000,4.000000,4.000000,4.000000,4.000000,4.000000,4.000000,4.000000,4.000000,4.000000,4.000000,100.000000,,,,,,,,,,,,,,,,,,,,,,,,,,,,,,,,,,,,,,,,,,,,,,,,,,,,,,,,,,,,,,,,,,,,,,
1605176589.045484,17.000000,0.000000,4129.743652,4159.102539,4163.205078,4170.384766,4170.000000,4174.230957,4171.666504,4161.410156,4155.256348,4229.743652,4152.692383,4195.000000,4173.974121,4125.769043,0.000000,4.000000,,,,0.000000,4.000000,4.000000,4.000000,4.000000,4.000000,4.000000,4.000000,4.000000,4.000000,4.000000,4.000000,4.000000,4.000000,4.000000,100.000000,,,,,,,,,,,,,,,,,,,,,,,,,,,,,,,,,,,,,,,,,,,,,,,,,,,,,,,,,,,,,,,,,,,,,,
1605176589.053465,18.000000,0.000000,4133.333496,4165.256348,4159.615234,4167.436035,4167.051270,4174.358887,4170.000000,4158.974121,4154.102539,4226.922852,4153.461426,4193.077148,4174.487305,4125.769043,0.000000,4.000000,,,,0.000000,4.000000,4.000000,4.000000,4.000000,4.000000,4.000000,4.000000,4.000000,4.000000,4.000000,4.000000,4.000000,4.000000,4.000000,100.000000,,,,,,,,,,,,,,,,,,,,,,,,,,,,,,,,,,,,,,,,,,,,,,,,,,,,,,,,,,,,,,,,,,,,,,
1605176589.061347,19.000000,0.000000,4126.922852,4161.410156,4152.820313,4155.769043,4170.769043,4171.922852,4161.282227,4154.102539,4156.025879,4218.589844,4151.282227,4190.384766,4167.692383,4127.307617,0.000000,4.000000,,,,0.000000,4.000000,4.000000,4.000000,4.000000,4.000000,4.000000,4.000000,4.000000,4.000000,4.000000,4.000000,4.000000,4.000000,4.000000,100.000000,,,,,,,,,,,,,,,,,,,,,,,,,,,,,,,,,,,,,,,,,,,,,,,,,,,,,,,,,,,,,,,,,,,,,,
1605176589.069327,20.000000,0.000000,4111.666504,4165.128418,4165.512695,4166.025879,4167.436035,4174.615234,4162.307617,4157.307617,4160.512695,4229.230957,4155.000000,4195.128418,4169.871582,4131.282227,0.000000,4.000000,,,,0.000000,4.000000,4.000000,4.000000,4.000000,4.000000,4.000000,4.000000,4.000000,4.000000,4.000000,4.000000,4.000000,4.000000,4.000000,100.000000,,,,,,,,,,,,,,,,,,,,,,,,,,,,,,,,,,,,,,,,,,,,,,,,,,,,,,,,,,,,,,,,,,,,,,
1605176589.077208,21.000000,0.000000,4110.769043,4172.436035,4179.743652,4181.666504,4158.461426,4177.179688,4169.230957,4158.077148,4160.000000,4240.256348,4159.487305,4195.897461,4178.333496,4136.282227,0.000000,4.000000,,,,0.000000,4.000000,4.000000,4.000000,4.000000,4.000000,4.000000,4.000000,4.000000,4.000000,4.000000,4.000000,4.000000,4.000000,4.000000,100.000000,,,,,,,,,,,,,,,,,,,,,,,,,,,,,,,,,,,,,,,,,,,,,,,,,,,,,,,,,,,,,,,,,,,,,,
1605176589.084989,22.000000,0.000000,4130.128418,4168.461426,4165.256348,4170.897461,4162.179688,4170.000000,4157.051270,4149.871582,4154.102539,4228.461426,4153.974121,4185.128418,4172.307617,4126.153809,0.000000,4.000000,,,,0.000000,4.000000,4.000000,4.000000,4.000000,4.000000,4.000000,4.000000,4.000000,4.000000,4.000000,4.000000,4.000000,4.000000,4.000000,100.000000,,,,,,,,,,,,,,,,,,,,,,,,,,,,,,,,,,,,,,,,,,,,,,,,,,,,,,,,,,,,,,,,,,,,,,
1605176589.092870,23.000000,0.000000,4135.641113,4163.205078,4147.820313,4157.563965,4172.948730,4164.230957,4143.974121,4151.794922,4155.128418,4219.230957,4150.769043,4178.589844,4163.461426,4116.794922,0.000000,4.000000,,,,0.000000,4.000000,4.000000,4.000000,4.000000,4.000000,4.000000,4.000000,4.000000,4.000000,4.000000,4.000000,4.000000,4.000000,4.000000,100.000000,,,,,,,,,,,,,,,,,,,,,,,,,,,,,,,,,,,,,,,,,,,,,,,,,,,,,,,,,,,,,,,,,,,,,,
1605176589.100651,24.000000,0.000000,4118.077148,4158.333496,4146.922852,4157.051270,4170.128418,4163.974121,4148.589844,4159.102539,4158.333496,4217.820313,4152.179688,4182.307617,4164.102539,4121.922852,0.000000,4.000000,,,,0.000000,4.000000,4.000000,4.000000,4.000000,4.000000,4.000000,4.000000,4.000000,4.000000,4.000000,4.000000,4.000000,4.000000,4.000000,100.000000,1.732245,0.424128,1.444716,0.437962,0.276427,0.802520,0.260808,1.181983,0.507075,0.316300,0.497694,0.531860,1.519547,0.678241,0.457194,0.501448,0.396625,1.300235,1.157094,0.604296,0.324643,0.099552,0.133340,0.084639,0.142334,0.291161,0.374952,0.593358,0.206087,0.262789,1.140483,0.978938,0.858685,0.541880,0.444269,0.603594,0.898907,0.702122,0.458518,0.305512,0.134516,0.119360,0.193953,0.105556,0.121616,2.828264,1.196890,2.422672,0.828567,0.605531,0.625516,0.262042,0.534899,0.221854,0.190247,0.376328,0.294210,0.531957,0.265651,0.250355,0.630242,0.277873,0.547505,0.274136,0.290764,0.486673,0.325466,0.563721,0.203968,0.318393
1605176589.108532,25.000000,0.000000,4112.051270,4158.333496,4151.666504,4161.025879,4163.974121,4164.871582,4154.615234,4161.282227,4154.230957,4217.179688,4150.769043,4185.641113,4166.153809,4123.333496,0.000000,4.000000,,,,0.000000,4.000000,4.000000,4.000000,4.000000,4.000000,4.000000,4.000000,4.000000,4.000000,4.000000,4.000000,4.000000,4.000000,4.000000,100.000000,,,,,,,,,,,,,,,,,,,,,,,,,,,,,,,,,,,,,,,,,,,,,,,,,,,,,,,,,,,,,,,,,,,,,,
1605176589.116313,26.000000,0.000000,4125.128418,4170.128418,4164.358887,4172.692383,4165.512695,4167.563965,4156.538574,4168.717773,4156.538574,4225.641113,4154.871582,4186.666504,4171.922852,4122.563965,0.000000,4.000000,,,,0.000000,4.000000,4.000000,4.000000,4.000000,4.000000,4.000000,4.000000,4.000000,4.000000,4.000000,4.000000,4.000000,4.000000,4.000000,100.000000,,,,,,,,,,,,,,,,,,,,,,,,,,,,,,,,,,,,,,,,,,,,,,,,,,,,,,,,,,,,,,,,,,,,,,
1605176589.124194,27.000000,0.000000,4130.256348,4180.384766,4179.102539,4187.948730,4165.897461,4176.666504,4166.410156,4181.153809,4167.948730,4245.256348,4166.410156,4190.128418,4182.436035,4129.102539,0.000000,4.000000,,,,0.000000,4.000000,4.000000,4.000000,4.000000,4.000000,4.000000,4.000000,4.000000,4.000000,4.000000,4.000000,4.000000,4.000000,4.000000,100.000000,,,,,,,,,,,,,,,,,,,,,,,,,,,,,,,,,,,,,,,,,,,,,,,,,,,,,,,,,,,,,,,,,,,,,,
1605176589.131975,28.000000,0.000000,4121.410156,4173.974121,4171.666504,4182.948730,4166.538574,4178.077148,4166.794922,4180.256348,4171.153809,4249.487305,4170.000000,4187.948730,4179.871582,4127.820313,0.000000,4.000000,,,,0.000000,4.000000,4.000000,4.000000,4.000000,4.000000,4.000000,4.000000,4.000000,4.000000,4.000000,4.000000,4.000000,4.000000,4.000000,100.000000,,,,,,,,,,,,,,,,,,,,,,,,,,,,,,,,,,,,,,,,,,,,,,,,,,,,,,,,,,,,,,,,,,,,,,
1605176589.139856,29.000000,0.000000,4113.077148,4166.538574,4159.358887,4168.717773,4170.000000,4174.743652,4159.743652,4175.769043,4164.615234,4243.589844,4167.436035,4187.692383,4175.256348,4122.692383,0.000000,4.000000,,,,0.000000,4.000000,4.000000,4.000000,4.000000,4.000000,4.000000,4.000000,4.000000,4.000000,4.000000,4.000000,4.000000,4.000000,4.000000,100.000000,,,,,,,,,,,,,,,,,,,,,,,,,,,,,,,,,,,,,,,,,,,,,,,,,,,,,,,,,,,,,,,,,,,,,,
1605176589.147637,30.000000,0.000000,4110.769043,4166.922852,4159.871582,4163.589844,4170.769043,4176.794922,4163.333496,4181.282227,4160.897461,4248.717773,4167.692383,4192.563965,4178.205078,4126.538574,0.000000,4.000000,,,,0.000000,4.000000,4.000000,4.000000,4.000000,4.000000,4.000000,4.000000,4.000000,4.000000,4.000000,4.000000,4.000000,4.000000,4.000000,100.000000,,,,,,,,,,,,,,,,,,,,,,,,,,,,,,,,,,,,,,,,,,,,,,,,,,,,,,,,,,,,,,,,,,,,,,
1605176589.155518,31.000000,0.000000,4117.820313,4168.717773,4160.769043,4166.153809,4170.256348,4179.102539,4172.436035,4188.846191,4166.025879,4250.256348,4167.179688,4193.589844,4175.769043,4130.897461,0.000000,4.000000,,,,0.000000,4.000000,4.000000,4.000000,4.000000,4.000000,4.000000,4.000000,4.000000,4.000000,4.000000,4.000000,4.000000,4.000000,4.000000,100.000000,,,,,,,,,,,,,,,,,,,,,,,,,,,,,,,,,,,,,,,,,,,,,,,,,,,,,,,,,,,,,,,,,,,,,,
1605176589.163299,32.000000,0.000000,4132.563965,4179.102539,4173.974121,4187.820313,4170.000000,4184.358887,4183.974121,4196.538574,4171.282227,4261.153809,4173.333496,4196.410156,4183.205078,4134.871582,0.000000,4.000000,,,,0.000000,4.000000,4.000000,4.000000,4.000000,4.000000,4.000000,4.000000,4.000000,4.000000,4.000000,4.000000,4.000000,4.000000,4.000000,100.000000,,,,,,,,,,,,,,,,,,,,,,,,,,,,,,,,,,,,,,,,,,,,,,,,,,,,,,,,,,,,,,,,,,,,,,
1605176589.171180,33.000000,0.000000,4132.820313,4180.384766,4182.307617,4195.000000,4169.102539,4176.666504,4178.205078,4190.128418,4168.717773,4270.512695,4178.974121,4197.051270,4187.948730,4131.025879,0.000000,4.000000,,,,0.000000,4.000000,4.000000,4.000000,4.000000,4.000000,4.000000,4.000000,4.000000,4.000000,4.000000,4.000000,4.000000,4.000000,4.000000,100.000000,,,,,,,,,,,,,,,,,,,,,,,,,,,,,,,,,,,,,,,,,,,,,,,,,,,,,,,,,,,,,,,,,,,,,,
1605176589.178961,34.000000,0.000000,4117.692383,4164.871582,4168.846191,4168.717773,4171.153809,4160.641113,4159.102539,4175.897461,4162.692383,4251.922852,4170.769043,4191.794922,4173.205078,4122.307617,0.000000,4.000000,,,,0.000000,4.000000,4.000000,4.000000,4.000000,4.000000,4.000000,4.000000,4.000000,4.000000,4.000000,4.000000,4.000000,4.000000,4.000000,100.000000,,,,,,,,,,,,,,,,,,,,,,,,,,,,,,,,,,,,,,,,,,,,,,,,,,,,,,,,,,,,,,,,,,,,,,
1605176589.186842,35.000000,0.000000,4111.794922,4162.307617,4164.743652,4157.436035,4175.512695,4166.282227,4162.692383,4179.487305,4164.487305,4240.769043,4163.717773,4193.589844,4169.358887,4127.179688,0.000000,4.000000,,,,0.000000,4.000000,4.000000,4.000000,4.000000,4.000000,4.000000,4.000000,4.000000,4.000000,4.000000,4.000000,4.000000,4.000000,4.000000,100.000000,,,,,,,,,,,,,,,,,,,,,,,,,,,,,,,,,,,,,,,,,,,,,,,,,,,,,,,,,,,,,,,,,,,,,,
1605176589.194623,36.000000,0.000000,4124.743652,4179.487305,4185.000000,4183.589844,4175.769043,4184.743652,4181.153809,4195.256348,4170.641113,4267.051270,4176.153809,4201.410156,4189.871582,4138.974121,0.000000,4.000000,,,,0.000000,4.000000,4.000000,4.000000,4.000000,4.000000,4.000000,4.000000,4.000000,4.000000,4.000000,4.000000,4.000000,4.000000,4.000000,100.000000,,,,,,,,,,,,,,,,,,,,,,,,,,,,,,,,,,,,,,,,,,,,,,,,,,,,,,,,,,,,,,,,,,,,,,
1605176589.202604,37.000000,0.000000,4132.820313,4182.948730,4191.153809,4193.333496,4172.436035,4179.358887,4177.436035,4193.846191,4171.282227,4279.615234,4183.589844,4203.333496,4190.769043,4137.051270,0.000000,4.000000,,,,0.000000,4.000000,4.000000,4.000000,4.000000,4.000000,4.000000,4.000000,4.000000,4.000000,4.000000,4.000000,4.000000,4.000000,4.000000,100.000000,,,,,,,,,,,,,,,,,,,,,,,,,,,,,,,,,,,,,,,,,,,,,,,,,,,,,,,,,,,,,,,,,,,,,,
1605176589.210485,38.000000,0.000000,4131.282227,4176.410156,4176.794922,4175.769043,4173.205078,4170.128418,4170.769043,4187.307617,4168.461426,4264.743652,4178.077148,4201.410156,4175.000000,4134.230957,0.000000,4.000000,,,,0.000000,4.000000,4.000000,4.000000,4.000000,4.000000,4.000000,4.000000,4.000000,4.000000,4.000000,4.000000,4.000000,4.000000,4.000000,100.000000,,,,,,,,,,,,,,,,,,,,,,,,,,,,,,,,,,,,,,,,,,,,,,,,,,,,,,,,,,,,,,,,,,,,,,
1605176589.218466,39.000000,0.000000,4133.461426,4180.000000,4179.615234,4172.179688,4176.025879,4182.692383,4182.692383,4195.641113,4168.717773,4266.922852,4179.230957,4201.794922,4179.871582,4140.384766,0.000000,4.000000,,,,0.000000,4.000000,4.000000,4.000000,4.000000,4.000000,4.000000,4.000000,4.000000,4.000000,4.000000,4.000000,4.000000,4.000000,4.000000,100.000000,,,,,,,,,,,,,,,,,,,,,,,,,,,,,,,,,,,,,,,,,,,,,,,,,,,,,,,,,,,,,,,,,,,,,,
1605176589.226347,40.000000,0.000000,4139.871582,4188.717773,4195.641113,4187.179688,4177.692383,4190.897461,4192.179688,4205.512695,4172.051270,4289.230957,4188.461426,4205.512695,4195.769043,4147.307617,0.000000,4.000000,,,,0.000000,4.000000,4.000000,4.000000,4.000000,4.000000,4.000000,4.000000,4.000000,4.000000,4.000000,4.000000,4.000000,4.000000,4.000000,100.000000,0.714775,0.514738,1.663584,0.376544,0.262157,0.808824,0.236935,1.296904,0.501839,0.315223,0.413614,0.657178,1.717033,0.647042,0.450458,0.605563,0.433998,1.339575,1.272372,0.612946,0.402307,0.081282,0.132174,0.075173,0.118576,0.322123,0.390121,0.659441,0.215628,0.243531,1.367331,0.975418,1.005242,0.520914,0.444224,0.643210,0.969503,0.784744,0.468896,0.300932,0.154371,0.138538,0.194681,0.113506,0.123765,3.254226,1.054055,2.585568,0.868687,0.583178,0.701048,0.239159,0.578416,0.236057,0.181388,0.346362,0.345694,0.597865,0.252686,0.247991,0.644195,0.266580,0.606588,0.282402,0.298321,0.410636,0.396124,0.703356,0.225219,0.336622
1605176589.234128,41.000000,0.000000,4141.922852,4187.820313,4194.487305,4191.282227,4177.948730,4183.077148,4188.205078,4202.436035,4174.615234,4302.051270,4193.589844,4208.974121,4197.051270,4149.102539,0.000000,4.000000,,,,0.000000,4.000000,4.000000,4.000000,4.000000,4.000000,4.000000,4.000000,4.000000,4.000000,4.000000,4.000000,4.000000,4.000000,4.000000,100.000000,,,,,,,,,,,,,,,,,,,,,,,,,,,,,,,,,,,,,,,,,,,,,,,,,,,,,,,,,,,,,,,,,,,,,,
1605176589.242009,42.000000,0.000000,4129.743652,4175.384766,4177.436035,4175.641113,4177.179688,4176.410156,4177.563965,4191.153809,4174.487305,4289.743652,4189.230957,4204.358887,4185.641113,4144.102539,0.000000,4.000000,,,,0.000000,4.000000,4.000000,4.000000,4.000000,4.000000,4.000000,4.000000,4.000000,4.000000,4.000000,4.000000,4.000000,4.000000,4.000000,100.000000,,,,,,,,,,,,,,,,,,,,,,,,,,,,,,,,,,,,,,,,,,,,,,,,,,,,,,,,,,,,,,,,,,,,,,
1605176589.249790,43.000000,0.000000,4125.769043,4172.307617,4171.666504,4168.974121,4173.333496,4175.256348,4171.538574,4186.794922,4170.256348,4276.153809,4182.948730,4203.333496,4185.641113,4142.563965,0.000000,4.000000,,,,0.000000,4.000000,4.000000,4.000000,4.000000,4.000000,4.000000,4.000000,4.000000,4.000000,4.000000,4.000000,4.000000,4.000000,4.000000,100.000000,,,,,,,,,,,,,,,,,,,,,,,,,,,,,,,,,,,,,,,,,,,,,,,,,,,,,,,,,,,,,,,,,,,,,,
1605176589.257671,44.000000,0.000000,4143.461426,4184.871582,4185.256348,4187.179688,4172.436035,4180.128418,4179.230957,4198.333496,4169.871582,4289.102539,4186.282227,4209.487305,4198.333496,4149.871582,0.000000,4.000000,,,,0.000000,4.000000,4.000000,4.000000,4.000000,4.000000,4.000000,4.000000,4.000000,4.000000,4.000000,4.000000,4.000000,4.000000,4.000000,100.000000,,,,,,,,,,,,,,,,,,,,,,,,,,,,,,,,,,,,,,,,,,,,,,,,,,,,,,,,,,,,,,,,,,,,,,
1605176589.265452,45.000000,0.000000,4149.230957,4190.641113,4196.666504,4200.897461,4177.436035,4189.871582,4192.563965,4210.769043,4178.333496,4308.846191,4197.436035,4204.102539,4195.128418,4148.589844,0.000000,4.000000,,,,0.000000,4.000000,4.000000,4.000000,4.000000,4.000000,4.000000,4.000000,4.000000,4.000000,4.000000,4.000000,4.000000,4.000000,4.000000,100.000000,,,,,,,,,,,,,,,,,,,,,,,,,,,,,,,,,,,,,,,,,,,,,,,,,,,,,,,,,,,,,,,,,,,,,,
1605176589.273433,46.000000,0.000000,4134.871582,4182.820313,4188.717773,4188.205078,4180.000000,4188.589844,4192.692383,4207.307617,4181.153809,4305.641113,4201.794922,4198.717773,4187.436035,4144.743652,0.000000,4.000000,,,,0.000000,4.000000,4.000000,4.000000,4.000000,4.000000,4.000000,4.000000,4.000000,4.000000,4.000000,4.000000,4.000000,4.000000,4.000000,100.000000,,,,,,,,,,,,,,,,,,,,,,,,,,,,,,,,,,,,,,,,,,,,,,,,,,,,,,,,,,,,,,,,,,,,,,
1605176589.281314,47.000000,0.000000,4130.769043,4175.256348,4176.282227,4176.410156,4180.384766,4179.230957,4184.487305,4202.948730,4177.051270,4298.461426,4198.846191,4206.153809,4196.666504,4155.641113,0.000000,4.000000,,,,0.000000,4.000000,4.000000,4.000000,4.000000,4.000000,4.000000,4.000000,4.000000,4.000000,4.000000,4.000000,4.000000,4.000000,4.000000,100.000000,,,,,,,,,,,,,,,,,,,,,,,,,,,,,,,,,,,,,,,,,,,,,,,,,,,,,,,,,,,,,,,,,,,,,,
1605176589.289295,48.000000,0.000000,4141.153809,4175.641113,4179.615234,4184.743652,4181.922852,4181.794922,4187.179688,4207.179688,4177.436035,4306.666504,4200.384766,4211.153809,4208.974121,4166.794922,0.000000,4.000000,,,,0.000000,4.000000,4.000000,4.000000,4.000000,4.000000,4.000000,4.000000,4.000000,4.000000,4.000000,4.000000,4.000000,4.000000,4.000000,100.000000,,,,,,,,,,,,,,,,,,,,,,,,,,,,,,,,,,,,,,,,,,,,,,,,,,,,,,,,,,,,,,,,,,,,,,
1605176589.297176,49.000000,0.000000,4142.436035,4181.794922,4185.897461,4187.948730,4182.436035,4185.384766,4196.794922,4205.128418,4179.487305,4316.794922,4202.179688,4205.384766,4211.025879,4163.461426,0.000000,4.000000,,,,0.000000,4.000000,4.000000,4.000000,4.000000,4.000000,4.000000,4.000000,4.000000,4.000000,4.000000,4.000000,4.000000,4.000000,4.000000,100.000000,,,,,,,,,,,,,,,,,,,,,,,,,,,,,,,,,,,,,,,,,,,,,,,,,,,,,,,,,,,,,,,,,,,,,,
1605176589.305157,50.000000,0.000000,4139.487305,4185.897461,4186.410156,4180.384766,4178.461426,4181.282227,4199.487305,4201.794922,4181.538574,4323.589844,4203.717773,4204.615234,4211.538574,4163.717773,0.000000,4.000000,,,,0.000000,4.000000,4.000000,4.000000,4.000000,4.000000,4.000000,4.000000,4.000000,4.000000,4.000000,4.000000,4.000000,4.000000,4.000000,100.000000,,,,,,,,,,,,,,,,,,,,,,,,,,,,,,,,,,,,,,,,,,,,,,,,,,,,,,,,,,,,,,,,,,,,,,
1605176589.313038,51.000000,0.000000,4151.025879,4183.974121,4188.333496,4182.307617,4174.871582,4184.358887,4197.179688,4210.000000,4185.769043,4329.487305,4209.743652,4210.000000,4214.743652,4169.487305,0.000000,4.000000,,,,0.000000,4.000000,4.000000,4.000000,4.000000,4.000000,4.000000,4.000000,4.000000,4.000000,4.000000,4.000000,4.000000,4.000000,4.000000,100.000000,,,,,,,,,,,,,,,,,,,,,,,,,,,,,,,,,,,,,,,,,,,,,,,,,,,,,,,,,,,,,,,,,,,,,,
1605176589.321019,52.000000,0.000000,4160.641113,4180.384766,4183.461426,4184.615234,4180.769043,4184.230957,4191.282227,4207.307617,4181.410156,4321.794922,4208.461426,4206.153809,4207.948730,4164.102539,0.000000,4.000000,,,,0.000000,4.000000,4.000000,4.000000,4.000000,4.000000,4.000000,4.000000,4.000000,4.000000,4.000000,4.000000,4.000000,4.000000,4.000000,100.000000,,,,,,,,,,,,,,,,,,,,,,,,,,,,,,,,,,,,,,,,,,,,,,,,,,,,,,,,,,,,,,,,,,,,,,
1605176589.328901,53.000000,0.000000,4148.846191,4182.563965,4177.948730,4182.948730,4186.922852,4180.512695,4187.948730,4197.179688,4177.692383,4315.256348,4203.205078,4197.820313,4200.384766,4157.436035,0.000000,4.000000,,,,0.000000,4.000000,4.000000,4.000000,4.000000,4.000000,4.000000,4.000000,4.000000,4.000000,4.000000,4.000000,4.000000,4.000000,4.000000,100.000000,,,,,,,,,,,,,,,,,,,,,,,,,,,,,,,,,,,,,,,,,,,,,,,,,,,,,,,,,,,,,,,,,,,,,,
1605176589.336882,54.000000,0.000000,4133.717773,4176.922852,4177.051270,4180.256348,4183.974121,4183.333496,4190.128418,4203.717773,4182.820313,4323.077148,4206.922852,4197.307617,4203.077148,4157.307617,0.000000,4.000000,,,,0.000000,4.000000,4.000000,4.000000,4.000000,4.000000,4.000000,4.000000,4.000000,4.000000,4.000000,4.000000,4.000000,4.000000,4.000000,100.000000,,,,,,,,,,,,,,,,,,,,,,,,,,,,,,,,,,,,,,,,,,,,,,,,,,,,,,,,,,,,,,,,,,,,,,
1605176589.344763,55.000000,0.000000,4142.563965,4171.025879,4178.077148,4180.000000,4182.563965,4186.282227,4192.692383,4213.333496,4181.153809,4329.743652,4211.025879,4204.230957,4211.025879,4162.051270,0.000000,4.000000,,,,0.000000,4.000000,4.000000,4.000000,4.000000,4.000000,4.000000,4.000000,4.000000,4.000000,4.000000,4.000000,4.000000,4.000000,4.000000,100.000000,,,,,,,,,,,,,,,,,,,,,,,,,,,,,,,,,,,,,,,,,,,,,,,,,,,,,,,,,,,,,,,,,,,,,,
1605176589.352744,56.000000,0.000000,4153.846191,4178.205078,4180.384766,4180.897461,4182.563965,4179.230957,4189.230957,4206.794922,4176.666504,4322.051270,4205.256348,4210.512695,4207.051270,4169.102539,0.000000,4.000000,,,,0.000000,4.000000,4.000000,4.000000,4.000000,4.000000,4.000000,4.000000,4.000000,4.000000,4.000000,4.000000,4.000000,4.000000,4.000000,100.000000,0.352893,0.601559,1.779449,0.359267,0.251893,0.867501,0.250849,1.341067,0.526165,0.314089,0.406696,0.749977,1.768499,0.645143,0.440099,0.748157,0.458646,1.252979,1.404251,0.609124,0.490573,0.069333,0.132223,0.065871,0.097191,0.374143,0.396458,0.670701,0.227213,0.224316,1.715144,1.018193,1.181570,0.495066,0.438179,0.775647,1.089854,0.872423,0.468996,0.292182,0.174118,0.157842,0.196760,0.122940,0.119961,3.876371,1.146207,2.652717,0.948522,0.547801,0.801307,0.253611,0.601782,0.257138,0.173006,0.349629,0.424466,0.631766,0.239203,0.240827,0.673975,0.338655,0.659096,0.304317,0.304988,0.419579,0.481789,0.817800,0.276493,0.357537
1605176589.360625,57.000000,0.000000,4150.769043,4188.461426,4190.128418,4191.153809,4175.256348,4178.333496,4193.077148,4205.512695,4184.230957,4321.025879,4206.666504,4214.871582,4202.307617,4174.102539,0.000000,4.000000,,,,0.000000,4.000000,4.000000,4.000000,4.000000,4.000000,4.000000,4.000000,4.000000,4.000000,4.000000,4.000000,4.000000,4.000000,4.000000,100.000000,,,,,,,,,,,,,,,,,,,,,,,,,,,,,,,,,,,,,,,,,,,,,,,,,,,,,,,,,,,,,,,,,,,,,,
1605176589.368606,58.000000,0.000000,4152.307617,4189.487305,4198.461426,4202.307617,4169.743652,4187.179688,4198.205078,4213.846191,4187.948730,4332.436035,4216.666504,4214.487305,4207.692383,4173.205078,0.000000,4.000000,,,,0.000000,4.000000,4.000000,4.000000,4.000000,4.000000,4.000000,4.000000,4.000000,4.000000,4.000000,4.000000,4.000000,4.000000,4.000000,100.000000,,,,,,,,,,,,,,,,,,,,,,,,,,,,,,,,,,,,,,,,,,,,,,,,,,,,,,,,,,,,,,,,,,,,,,
1605176589.376487,59.000000,0.000000,4148.461426,4179.102539,4186.538574,4189.102539,4174.615234,4183.589844,4190.256348,4205.384766,4178.589844,4325.897461,4212.307617,4204.615234,4201.666504,4164.871582,0.000000,4.000000,,,,0.000000,4.000000,4.000000,4.000000,4.000000,4.000000,4.000000,4.000000,4.000000,4.000000,4.000000,4.000000,4.000000,4.000000,4.000000,100.000000,,,,,,,,,,,,,,,,,,,,,,,,,,,,,,,,,,,,,,,,,,,,,,,,,,,,,,,,,,,,,,,,,,,,,,
1605176589.384268,60.000000,0.000000,4129.102539,4167.436035,4172.051270,4166.666504,4179.487305,4172.563965,4181.025879,4187.436035,4175.256348,4298.717773,4198.333496,4197.563965,4188.077148,4159.230957,0.000000,4.000000,,,,0.000000,4.000000,4.000000,4.000000,4.000000,4.000000,4.000000,4.000000,4.000000,4.000000,4.000000,4.000000,4.000000,4.000000,4.000000,100.000000,,,,,,,,,,,,,,,,,,,,,,,,,,,,,,,,,,,,,,,,,,,,,,,,,,,,,,,,,,,,,,,,,,,,,,
1605176589.392149,61.000000,0.000000,4129.743652,4166.666504,4180.128418,4168.333496,4179.358887,4175.000000,4184.358887,4190.384766,4178.974121,4290.512695,4197.307617,4200.641113,4189.871582,4166.410156,0.000000,4.000000,,,,0.000000,4.000000,4.000000,4.000000,4.000000,4.000000,4.000000,4.000000,4.000000,4.000000,4.000000,4.000000,4.000000,4.000000,4.000000,100.000000,,,,,,,,,,,,,,,,,,,,,,,,,,,,,,,,,,,,,,,,,,,,,,,,,,,,,,,,,,,,,,,,,,,,,,
1605176589.399930,62.000000,0.000000,4146.922852,4174.102539,4189.230957,4179.615234,4178.717773,4181.922852,4189.871582,4202.436035,4179.871582,4304.743652,4203.333496,4204.487305,4195.897461,4176.282227,0.000000,4.000000,,,,0.000000,4.000000,4.000000,4.000000,4.000000,4.000000,4.000000,4.000000,4.000000,4.000000,4.000000,4.000000,4.000000,4.000000,4.000000,100.000000,,,,,,,,,,,,,,,,,,,,,,,,,,,,,,,,,,,,,,,,,,,,,,,,,,,,,,,,,,,,,,,,,,,,,,
1605176589.407811,63.000000,0.000000,4147.307617,4173.077148,4177.692383,4175.128418,4178.461426,4179.230957,4184.230957,4198.846191,4177.307617,4306.282227,4202.692383,4204.743652,4191.666504,4174.487305,0.000000,4.000000,,,,0.000000,4.000000,4.000000,4.000000,4.000000,4.000000,4.000000,4.000000,4.000000,4.000000,4.000000,4.000000,4.000000,4.000000,4.000000,100.000000,,,,,,,,,,,,,,,,,,,,,,,,,,,,,,,,,,,,,,,,,,,,,,,,,,,,,,,,,,,,,,,,,,,,,,
1605176589.415592,64.000000,0.000000,4146.153809,4170.512695,4178.077148,4174.358887,4177.948730,4176.025879,4183.333496,4196.025879,4177.692383,4302.307617,4202.948730,4205.769043,4196.282227,4171.153809,3759.000000,4.000000,,,,0.000000,4.000000,4.000000,4.000000,4.000000,4.000000,4.000000,4.000000,4.000000,4.000000,4.000000,4.000000,4.000000,4.000000,4.000000,100.000000,,,,,,,,,,,,,,,,,,,,,,,,,,,,,,,,,,,,,,,,,,,,,,,,,,,,,,,,,,,,,,,,,,,,,,
1605176589.423473,65.000000,0.000000,4165.000000,4182.563965,4198.333496,4192.692383,4174.487305,4182.563965,4196.538574,4211.666504,4183.205078,4321.025879,4216.282227,4210.256348,4208.461426,4182.692383,4045.000000,4.000000,,,,0.000000,4.000000,4.000000,4.000000,4.000000,4.000000,4.000000,4.000000,4.000000,4.000000,4.000000,4.000000,4.000000,4.000000,4.000000,100.000000,,,,,,,,,,,,,,,,,,,,,,,,,,,,,,,,,,,,,,,,,,,,,,,,,,,,,,,,,,,,,,,,,,,,,,
1605176589.431254,66.000000,0.000000,4165.000000,4183.461426,4195.384766,4192.692383,4171.153809,4181.282227,4196.153809,4212.948730,4185.641113,4328.846191,4220.897461,4212.692383,4201.025879,4187.948730,3770.000000,4.000000,,,,0.000000,4.000000,4.000000,4.000000,4.000000,4.000000,4.000000,4.000000,4.000000,4.000000,4.000000,4.000000,4.000000,4.000000,4.000000,100.000000,,,,,,,,,,,,,,,,,,,,,,,,,,,,,,,,,,,,,,,,,,,,,,,,,,,,,,,,,,,,,,,,,,,,,,
1605176589.439135,67.000000,0.000000,4142.820313,4170.641113,4181.922852,4176.794922,4172.051270,4174.615234,4184.230957,4196.922852,4181.410156,4308.717773,4207.948730,4211.538574,4189.615234,4180.000000,4211.000000,4.000000,,,,0.000000,4.000000,4.000000,4.000000,4.000000,4.000000,4.000000,4.000000,4.000000,4.000000,4.000000,4.000000,4.000000,4.000000,4.000000,100.000000,,,,,,,,,,,,,,,,,,,,,,,,,,,,,,,,,,,,,,,,,,,,,,,,,,,,,,,,,,,,,,,,,,,,,,
1605176589.446916,68.000000,0.000000,4141.794922,4168.333496,4188.077148,4173.205078,4169.358887,4171.025879,4182.179688,4192.563965,4176.922852,4300.256348,4203.717773,4207.051270,4195.897461,4177.436035,3477.000000,4.000000,,,,0.000000,4.000000,4.000000,4.000000,4.000000,4.000000,4.000000,4.000000,4.000000,4.000000,4.000000,4.000000,4.000000,4.000000,4.000000,100.000000,,,,,,,,,,,,,,,,,,,,,,,,,,,,,,,,,,,,,,,,,,,,,,,,,,,,,,,,,,,,,,,,,,,,,,
1605176589.454797,69.000000,0.000000,4150.897461,4166.025879,4178.589844,4165.512695,4167.820313,4163.589844,4169.615234,4186.025879,4175.512695,4293.589844,4202.692383,4198.974121,4192.820313,4173.717773,3431.000000,4.000000,,,,0.000000,4.000000,4.000000,4.000000,4.000000,4.000000,4.000000,4.000000,4.000000,4.000000,4.000000,4.000000,4.000000,4.000000,4.000000,100.000000,,,,,,,,,,,,,,,,,,,,,,,,,,,,,,,,,,,,,,,,,,,,,,,,,,,,,,,,,,,,,,,,,,,,,,
1605176589.462578,70.000000,0.000000,4153.589844,4166.666504,4157.948730,4155.769043,4171.410156,4161.025879,4150.384766,4171.538574,4170.256348,4267.820313,4190.769043,4190.897461,4178.205078,4165.384766,4059.000000,4.000000,,,,0.000000,4.000000,4.000000,4.000000,4.000000,4.000000,4.000000,4.000000,4.000000,4.000000,4.000000,4.000000,4.000000,4.000000,4.000000,100.000000,,,,,,,,,,,,,,,,,,,,,,,,,,,,,,,,,,,,,,,,,,,,,,,,,,,,,,,,,,,,,,,,,,,,,,
1605176589.470459,71.000000,0.000000,4168.077148,4185.769043,4177.179688,4181.410156,4170.000000,4173.461426,4164.487305,4179.487305,4169.743652,4264.102539,4193.589844,4197.948730,4180.384766,4171.538574,3583.000000,4.000000,,,,0.000000,4.000000,4.000000,4.000000,4.000000,4.000000,4.000000,4.000000,4.000000,4.000000,4.000000,4.000000,4.000000,4.000000,4.000000,100.000000,,,,,,,,,,,,,,,,,,,,,,,,,,,,,,,,,,,,,,,,,,,,,,,,,,,,,,,,,,,,,,,,,,,,,,
1605176589.478240,72.000000,0.000000,4183.589844,4197.948730,4200.128418,4205.512695,4161.794922,4173.717773,4174.743652,4190.769043,4175.000000,4282.179688,4205.256348,4208.589844,4182.948730,4189.230957,1164.000000,4.000000,,,,0.000000,4.000000,4.000000,4.000000,4.000000,4.000000,4.000000,4.000000,4.000000,4.000000,4.000000,4.000000,4.000000,4.000000,4.000000,100.000000,0.285684,0.643788,1.749890,0.374268,0.249869,0.941556,0.271746,1.286313,0.582535,0.314536,0.471449,0.779338,1.658882,0.695491,0.434810,0.899973,0.455980,1.069724,1.560260,0.601263,0.559578,0.058195,0.131407,0.059428,0.080756,0.427472,0.387369,0.633689,0.239888,0.212009,2.097891,1.094142,1.369409,0.476422,0.432279,0.966004,1.202585,0.963699,0.463128,0.282740,0.193207,0.170934,0.203453,0.130887,0.111669,4.570816,1.360667,2.631494,1.046387,0.514957,0.909863,0.289893,0.604168,0.279828,0.169443,0.384624,0.505054,0.631328,0.231160,0.232669,0.728003,0.455391,0.691470,0.339193,0.311466,0.448963,0.561131,0.882928,0.354219,0.376096
1605176589.486121,73.000000,0.000000,4167.948730,4157.563965,4159.743652,4153.589844,4150.512695,4137.948730,4132.179688,4157.051270,4167.307617,4244.487305,4183.205078,4188.717773,4160.897461,4177.051270,4369.000000,4.000000,,,,0.000000,4.000000,4.000000,4.000000,4.000000,4.000000,4.000000,4.000000,4.000000,4.000000,4.000000,4.000000,4.000000,4.000000,4.000000,100.000000,,,,,,,,,,,,,,,,,,,,,,,,,,,,,,,,,,,,,,,,,,,,,,,,,,,,,,,,,,,,,,,,,,,,,,
1605176589.493902,74.000000,0.000000,4148.461426,4115.128418,4127.179688,4110.641113,4136.666504,4122.563965,4104.743652,4129.743652,4154.102539,4186.153809,4151.538574,4168.717773,4157.307617,4159.102539,3341.000000,4.000000,,,,0.000000,4.000000,4.000000,4.000000,4.000000,4.000000,4.000000,4.000000,4.000000,4.000000,4.000000,4.000000,4.000000,4.000000,4.000000,100.000000,,,,,,,,,,,,,,,,,,,,,,,,,,,,,,,,,,,,,,,,,,,,,,,,,,,,,,,,,,,,,,,,,,,,,,
1605176589.501782,75.000000,0.000000,4144.358887,4114.615234,4145.897461,4128.461426,4128.077148,4136.922852,4112.436035,4137.307617,4152.692383,4172.692383,4148.974121,4178.974121,4172.692383,4171.410156,2868.000000,4.000000,,,,0.000000,4.000000,4.000000,4.000000,4.000000,4.000000,4.000000,4.000000,4.000000,4.000000,4.000000,4.000000,4.000000,4.000000,4.000000,100.000000,,,,,,,,,,,,,,,,,,,,,,,,,,,,,,,,,,,,,,,,,,,,,,,,,,,,,,,,,,,,,,,,,,,,,,
1605176589.509563,76.000000,0.000000,4147.948730,4116.410156,4149.230957,4131.282227,4130.641113,4133.461426,4105.128418,4136.922852,4154.487305,4169.743652,4151.666504,4186.666504,4172.051270,4185.641113,2190.000000,4.000000,,,,0.000000,4.000000,4.000000,4.000000,4.000000,4.000000,4.000000,4.000000,4.000000,4.000000,4.000000,4.000000,4.000000,4.000000,4.000000,100.000000,,,,,,,,,,,,,,,,,,,,,,,,,,,,,,,,,,,,,,,,,,,,,,,,,,,,,,,,,,,,,,,,,,,,,,
1605176589.517544,77.000000,0.000000,4158.461426,4111.025879,4142.692383,4126.538574,4132.307617,4128.205078,4103.974121,4136.666504,4152.948730,4165.512695,4150.512695,4184.487305,4171.538574,4186.153809,2359.000000,4.000000,,,,0.000000,4.000000,4.000000,4.000000,4.000000,4.000000,4.000000,4.000000,4.000000,4.000000,4.000000,4.000000,4.000000,4.000000,4.000000,100.000000,,,,,,,,,,,,,,,,,,,,,,,,,,,,,,,,,,,,,,,,,,,,,,,,,,,,,,,,,,,,,,,,,,,,,,
1605176589.525425,78.000000,0.000000,4154.743652,4106.153809,4142.948730,4128.205078,4130.384766,4134.871582,4112.179688,4140.769043,4152.436035,4161.922852,4147.307617,4182.948730,4173.077148,4177.307617,3341.000000,4.000000,,,,0.000000,4.000000,4.000000,4.000000,4.000000,4.000000,4.000000,4.000000,4.000000,4.000000,4.000000,4.000000,4.000000,4.000000,4.000000,100.000000,,,,,,,,,,,,,,,,,,,,,,,,,,,,,,,,,,,,,,,,,,,,,,,,,,,,,,,,,,,,,,,,,,,,,,
1605176589.533406,79.000000,0.000000,4139.358887,4096.922852,4124.871582,4107.948730,4130.769043,4127.563965,4095.512939,4128.846191,4149.358887,4136.282227,4133.974121,4175.384766,4162.563965,4167.436035,2868.000000,4.000000,,,,0.000000,4.000000,4.000000,4.000000,4.000000,4.000000,4.000000,4.000000,4.000000,4.000000,4.000000,4.000000,4.000000,4.000000,4.000000,100.000000,,,,,,,,,,,,,,,,,,,,,,,,,,,,,,,,,,,,,,,,,,,,,,,,,,,,,,,,,,,,,,,,,,,,,,
1605176589.541287,80.000000,0.000000,4146.025879,4109.743652,4133.205078,4118.205078,4128.077148,4130.641113,4099.743652,4135.384766,4150.384766,4136.794922,4140.000000,4182.179688,4171.153809,4177.820313,2190.000000,4.000000,,,,0.000000,4.000000,4.000000,4.000000,4.000000,4.000000,4.000000,4.000000,4.000000,4.000000,4.000000,4.000000,4.000000,4.000000,4.000000,100.000000,,,,,,,,,,,,,,,,,,,,,,,,,,,,,,,,,,,,,,,,,,,,,,,,,,,,,,,,,,,,,,,,,,,,,,
1605176589.549268,81.000000,0.000000,4149.615234,4126.538574,4160.641113,4149.487305,4128.077148,4143.717773,4123.846191,4156.410156,4155.000000,4166.922852,4156.282227,4191.153809,4183.333496,4184.743652,2359.000000,4.000000,,,,0.000000,4.000000,4.000000,4.000000,4.000000,4.000000,4.000000,4.000000,4.000000,4.000000,4.000000,4.000000,4.000000,4.000000,4.000000,100.000000,,,,,,,,,,,,,,,,,,,,,,,,,,,,,,,,,,,,,,,,,,,,,,,,,,,,,,,,,,,,,,,,,,,,,,
1605176589.557149,82.000000,0.000000,4128.205078,4109.487305,4138.717773,4122.436035,4133.846191,4127.948730,4106.794922,4139.615234,4150.897461,4148.717773,4142.563965,4174.487305,4158.333496,4159.487305,3341.000000,4.000000,,,,0.000000,4.000000,4.000000,4.000000,4.000000,4.000000,4.000000,4.000000,4.000000,4.000000,4.000000,4.000000,4.000000,4.000000,4.000000,100.000000,,,,,,,,,,,,,,,,,,,,,,,,,,,,,,,,,,,,,,,,,,,,,,,,,,,,,,,,,,,,,,,,,,,,,,
1605176589.564930,83.000000,0.000000,4120.769043,4102.563965,4112.948730,4101.794922,4135.641113,4116.666504,4088.974365,4121.538574,4144.615234,4109.487305,4123.333496,4166.153809,4137.692383,4144.743652,2868.000000,4.000000,,,,0.000000,4.000000,4.000000,4.000000,4.000000,4.000000,4.000000,4.000000,4.000000,4.000000,4.000000,4.000000,4.000000,4.000000,4.000000,100.000000,,,,,,,,,,,,,,,,,,,,,,,,,,,,,,,,,,,,,,,,,,,,,,,,,,,,,,,,,,,,,,,,,,,,,,
1605176589.572811,84.000000,0.000000,4131.410156,4134.743652,4139.743652,4140.897461,4135.769043,4139.102539,4115.256348,4142.179688,4150.128418,4126.922852,4133.589844,4180.000000,4151.794922,4162.307617,2190.000000,4.000000,,,,0.000000,4.000000,4.000000,4.000000,4.000000,4.000000,4.000000,4.000000,4.000000,4.000000,4.000000,4.000000,4.000000,4.000000,4.000000,100.000000,,,,,,,,,,,,,,,,,,,,,,,,,,,,,,,,,,,,,,,,,,,,,,,,,,,,,,,,,,,,,,,,,,,,,,
1605176589.580592,85.000000,0.000000,4130.128418,4144.102539,4155.641113,4152.692383,4137.307617,4150.769043,4130.512695,4153.205078,4155.512695,4152.820313,4146.922852,4180.128418,4158.077148,4165.384766,2359.000000,4.000000,,,,0.000000,4.000000,4.000000,4.000000,4.000000,4.000000,4.000000,4.000000,4.000000,4.000000,4.000000,4.000000,4.000000,4.000000,4.000000,100.000000,,,,,,,,,,,,,,,,,,,,,,,,,,,,,,,,,,,,,,,,,,,,,,,,,,,,,,,,,,,,,,,,,,,,,,
1605176589.588473,86.000000,0.000000,4121.538574,4125.256348,4140.897461,4131.794922,4137.563965,4144.743652,4123.974121,4145.000000,4152.948730,4143.461426,4143.974121,4172.948730,4150.512695,4157.563965,3341.000000,4.000000,,,,0.000000,4.000000,4.000000,4.000000,4.000000,4.000000,4.000000,4.000000,4.000000,4.000000,4.000000,4.000000,4.000000,4.000000,4.000000,100.000000,,,,,,,,,,,,,,,,,,,,,,,,,,,,,,,,,,,,,,,,,,,,,,,,,,,,,,,,,,,,,,,,,,,,,,
1605176589.596254,87.000000,0.000000,4123.461426,4128.205078,4140.769043,4139.743652,4138.589844,4146.666504,4130.512695,4150.512695,4150.128418,4144.871582,4144.615234,4179.358887,4156.922852,4165.384766,2868.000000,4.000000,,,,0.000000,4.000000,4.000000,4.000000,4.000000,4.000000,4.000000,4.000000,4.000000,4.000000,4.000000,4.000000,4.000000,4.000000,4.000000,100.000000,,,,,,,,,,,,,,,,,,,,,,,,,,,,,,,,,,,,,,,,,,,,,,,,,,,,,,,,,,,,,,,,,,,,,,
1605176589.604235,88.000000,0.000000,4121.922852,4135.769043,4145.897461,4151.410156,4143.717773,4148.205078,4130.641113,4153.077148,4150.769043,4155.769043,4146.922852,4181.666504,4162.563965,4167.563965,2190.000000,4.000000,,,,0.000000,4.000000,4.000000,4.000000,4.000000,4.000000,4.000000,4.000000,4.000000,4.000000,4.000000,4.000000,4.000000,4.000000,4.000000,100.000000,0.351238,0.619389,1.580748,0.409294,0.262366,0.973963,0.276551,1.139472,0.659922,0.318486,0.568251,0.733765,1.423728,0.800694,0.441773,1.009734,0.426303,0.855196,1.726752,0.602725,0.586447,0.048060,0.129574,0.059812,0.069423,0.462845,0.369197,0.572181,0.250234,0.210736,2.413232,1.174827,1.537803,0.470453,0.430440,1.162480,1.249296,1.045499,0.453707,0.277254,0.204585,0.172934,0.211979,0.133896,0.102155,5.128178,1.587821,2.532408,1.131924,0.502613,0.996550,0.328012,0.589588,0.298226,0.172784,0.432368,0.559906,0.601682,0.232260,0.225285,0.795605,0.569462,0.692863,0.378464,0.320279,0.451415,0.614096,0.888770,0.441302,0.385684
1605176589.612116,89.000000,0.000000,4118.717773,4136.153809,4149.487305,4153.205078,4143.846191,4152.307617,4131.666504,4152.436035,4154.487305,4162.307617,4148.333496,4178.589844,4162.820313,4166.282227,2359.000000,4.000000,,,,0.000000,4.000000,4.000000,4.000000,4.000000,4.000000,4.000000,4.000000,4.000000,4.000000,4.000000,4.000000,4.000000,4.000000,4.000000,100.000000,,,,,,,,,,,,,,,,,,,,,,,,,,,,,,,,,,,,,,,,,,,,,,,,,,,,,,,,,,,,,,,,,,,,,,
1605176589.620097,90.000000,0.000000,4119.358887,4140.769043,4157.692383,4161.794922,4136.410156,4158.974121,4147.307617,4160.384766,4153.717773,4170.897461,4153.461426,4184.230957,4165.000000,4173.717773,3341.000000,4.000000,,,,0.000000,4.000000,4.000000,4.000000,4.000000,4.000000,4.000000,4.000000,4.000000,4.000000,4.000000,4.000000,4.000000,4.000000,4.000000,100.000000,,,,,,,,,,,,,,,,,,,,,,,,,,,,,,,,,,,,,,,,,,,,,,,,,,,,,,,,,,,,,,,,,,,,,,
1605176589.627978,91.000000,0.000000,4116.282227,4148.717773,4165.000000,4170.769043,4138.205078,4161.282227,4156.025879,4168.205078,4155.769043,4186.922852,4162.179688,4193.846191,4170.512695,4181.666504,2868.000000,4.000000,,,,0.000000,4.000000,4.000000,4.000000,4.000000,4.000000,4.000000,4.000000,4.000000,4.000000,4.000000,4.000000,4.000000,4.000000,4.000000,100.000000,,,,,,,,,,,,,,,,,,,,,,,,,,,,,,,,,,,,,,,,,,,,,,,,,,,,,,,,,,,,,,,,,,,,,,
1605176589.635959,92.000000,0.000000,4109.871582,4145.512695,4157.820313,4160.256348,4148.205078,4155.128418,4144.487305,4166.153809,4162.179688,4197.563965,4164.871582,4192.820313,4170.897461,4175.641113,2190.000000,4.000000,,,,0.000000,4.000000,4.000000,4.000000,4.000000,4.000000,4.000000,4.000000,4.000000,4.000000,4.000000,4.000000,4.000000,4.000000,4.000000,100.000000,,,,,,,,,,,,,,,,,,,,,,,,,,,,,,,,,,,,,,,,,,,,,,,,,,,,,,,,,,,,,,,,,,,,,,
1605176589.643841,93.000000,0.000000,4110.512695,4136.153809,4141.922852,4146.153809,4154.358887,4149.358887,4137.563965,4163.333496,4159.230957,4191.153809,4158.077148,4184.615234,4166.666504,4162.436035,2359.000000,4.000000,,,,0.000000,4.000000,4.000000,4.000000,4.000000,4.000000,4.000000,4.000000,4.000000,4.000000,4.000000,4.000000,4.000000,4.000000,4.000000,100.000000,,,,,,,,,,,,,,,,,,,,,,,,,,,,,,,,,,,,,,,,,,,,,,,,,,,,,,,,,,,,,,,,,,,,,,
1605176589.651822,94.000000,0.000000,4117.307617,4136.410156,4144.743652,4153.205078,4154.487305,4153.461426,4148.077148,4170.256348,4157.563965,4187.692383,4159.871582,4187.820313,4168.461426,4164.102539,3341.000000,4.000000,,,,0.000000,4.000000,4.000000,4.000000,4.000000,4.000000,4.000000,4.000000,4.000000,4.000000,4.000000,4.000000,4.000000,4.000000,4.000000,100.000000,,,,,,,,,,,,,,,,,,,,,,,,,,,,,,,,,,,,,,,,,,,,,,,,,,,,,,,,,,,,,,,,,,,,,,
1605176589.659703,95.000000,0.000000,4118.461426,4141.666504,4158.846191,4160.769043,4150.384766,4163.589844,4157.820313,4179.102539,4166.922852,4201.153809,4170.512695,4193.333496,4174.358887,4175.769043,2868.000000,4.000000,,,,0.000000,4.000000,4.000000,4.000000,4.000000,4.000000,4.000000,4.000000,4.000000,4.000000,4.000000,4.000000,4.000000,4.000000,4.000000,100.000000,,,,,,,,,,,,,,,,,,,,,,,,,,,,,,,,,,,,,,,,,,,,,,,,,,,,,,,,,,,,,,,,,,,,,,
1605176589.667684,96.000000,0.000000,4116.794922,4142.436035,4157.051270,4153.461426,4147.436035,4167.948730,4159.358887,4180.000000,4170.256348,4213.846191,4171.922852,4191.282227,4176.538574,4177.051270,2190.000000,4.000000,,,,0.000000,4.000000,4.000000,4.000000,4.000000,4.000000,4.000000,4.000000,4.000000,4.000000,4.000000,4.000000,4.000000,4.000000,4.000000,100.000000,,,,,,,,,,,,,,,,,,,,,,,,,,,,,,,,,,,,,,,,,,,,,,,,,,,,,,,,,,,,,,,,,,,,,,
1605176589.675565,97.000000,0.000000,4118.205078,4144.358887,4150.641113,4158.333496,4149.743652,4171.410156,4163.717773,4179.487305,4165.897461,4219.871582,4171.410156,4188.589844,4183.974121,4174.743652,2359.000000,4.000000,,,,0.000000,4.000000,4.000000,4.000000,4.000000,4.000000,4.000000,4.000000,4.000000,4.000000,4.000000,4.000000,4.000000,4.000000,4.000000,100.000000,,,,,,,,,,,,,,,,,,,,,,,,,,,,,,,,,,,,,,,,,,,,,,,,,,,,,,,,,,,,,,,,,,,,,,
1605176589.683546,98.000000,0.000000,4115.897461,4143.717773,4153.077148,4166.794922,4150.128418,4175.128418,4168.461426,4181.282227,4168.205078,4231.538574,4178.717773,4183.846191,4187.948730,4175.641113,3341.000000,4.000000,,,,0.000000,4.000000,4.000000,4.000000,4.000000,4.000000,4.000000,4.000000,4.000000,4.000000,4.000000,4.000000,4.000000,4.000000,4.000000,100.000000,,,,,,,,,,,,,,,,,,,,,,,,,,,,,,,,,,,,,,,,,,,,,,,,,,,,,,,,,,,,,,,,,,,,,,
1605176589.691427,99.000000,0.000000,4114.230957,4141.025879,4152.948730,4160.641113,4148.333496,4169.487305,4163.846191,4178.333496,4171.794922,4236.922852,4181.538574,4179.102539,4176.794922,4173.077148,2868.000000,4.000000,,,,0.000000,4.000000,4.000000,4.000000,4.000000,4.000000,4.000000,4.000000,4.000000,4.000000,4.000000,4.000000,4.000000,4.000000,4.000000,100.000000,,,,,,,,,,,,,,,,,,,,,,,,,,,,,,,,,,,,,,,,,,,,,,,,,,,,,,,,,,,,,,,,,,,,,,
1605176589.699208,100.000000,0.000000,4112.051270,4137.692383,4143.846191,4149.230957,4153.333496,4160.641113,4154.102539,4167.563965,4167.436035,4222.051270,4174.487305,4179.358887,4167.179688,4170.384766,2190.000000,4.000000,,,,0.000000,4.000000,4.000000,4.000000,4.000000,4.000000,4.000000,4.000000,4.000000,4.000000,4.000000,4.000000,4.000000,4.000000,4.000000,100.000000,,,,,,,,,,,,,,,,,,,,,,,,,,,,,,,,,,,,,,,,,,,,,,,,,,,,,,,,,,,,,,,,,,,,,,
1605176589.707089,101.000000,0.000000,4110.128418,4140.769043,4141.922852,4153.717773,4154.358887,4167.051270,4156.538574,4169.615234,4165.512695,4212.051270,4171.410156,4185.512695,4174.871582,4175.897461,2359.000000,4.000000,,,,0.000000,4.000000,4.000000,4.000000,4.000000,4.000000,4.000000,4.000000,4.000000,4.000000,4.000000,4.000000,4.000000,4.000000,4.000000,100.000000,,,,,,,,,,,,,,,,,,,,,,,,,,,,,,,,,,,,,,,,,,,,,,,,,,,,,,,,,,,,,,,,,,,,,,
1605176589.714870,102.000000,0.000000,4111.794922,4153.974121,4158.461426,4173.333496,4146.666504,4178.205078,4168.717773,4184.358887,4168.333496,4226.282227,4178.846191,4190.384766,4182.179688,4181.153809,3341.000000,4.000000,,,,0.000000,4.000000,4.000000,4.000000,4.000000,4.000000,4.000000,4.000000,4.000000,4.000000,4.000000,4.000000,4.000000,4.000000,4.000000,100.000000,,,,,,,,,,,,,,,,,,,,,,,,,,,,,,,,,,,,,,,,,,,,,,,,,,,,,,,,,,,,,,,,,,,,,,
1605176589.722751,103.000000,0.000000,4118.077148,4157.051270,4165.897461,4179.743652,4149.615234,4169.487305,4165.897461,4182.820313,4170.256348,4238.461426,4184.358887,4188.333496,4177.307617,4181.666504,2868.000000,4.000000,,,,0.000000,4.000000,4.000000,4.000000,4.000000,4.000000,4.000000,4.000000,4.000000,4.000000,4.000000,4.000000,4.000000,4.000000,4.000000,100.000000,,,,,,,,,,,,,,,,,,,,,,,,,,,,,,,,,,,,,,,,,,,,,,,,,,,,,,,,,,,,,,,,,,,,,,
1605176589.730532,104.000000,0.000000,4118.333496,4140.769043,4147.820313,4154.871582,4162.436035,4151.666504,4144.871582,4166.794922,4167.179688,4226.282227,4175.512695,4179.743652,4170.000000,4176.410156,2190.000000,4.000000,,,,0.000000,4.000000,4.000000,4.000000,4.000000,4.000000,4.000000,4.000000,4.000000,4.000000,4.000000,4.000000,4.000000,4.000000,4.000000,100.000000,0.434860,0.537027,1.324256,0.466628,0.294451,0.995261,0.281280,0.938373,0.747070,0.330116,0.719559,0.625368,1.129696,0.939826,0.470881,1.084389,0.387976,0.672003,1.876143,0.633099,0.575138,0.043272,0.130163,0.070638,0.062015,0.493807,0.352880,0.512295,0.256434,0.223006,2.642610,1.214293,1.634795,0.479184,0.437368,1.357198,1.206466,1.095625,0.445625,0.283162,0.209595,0.163343,0.215226,0.130567,0.095541,5.527540,1.771111,2.365602,1.184886,0.528467,1.061953,0.356984,0.563836,0.311445,0.184269,0.491923,0.573129,0.553533,0.242767,0.219492,0.849092,0.652277,0.663182,0.409331,0.334700,0.415892,0.631475,0.843487,0.514446,0.384003
1605176589.738413,105.000000,0.000000,4106.922852,4129.615234,4133.717773,4132.179688,4163.077148,4151.410156,4135.256348,4160.384766,4165.512695,4202.948730,4165.384766,4176.025879,4163.333496,4169.102539,2359.000000,4.000000,,,,0.000000,4.000000,4.000000,4.000000,4.000000,4.000000,4.000000,4.000000,4.000000,4.000000,4.000000,4.000000,4.000000,4.000000,4.000000,100.000000,,,,,,,,,,,,,,,,,,,,,,,,,,,,,,,,,,,,,,,,,,,,,,,,,,,,,,,,,,,,,,,,,,,,,,
1605176589.746194,106.000000,0.000000,4112.820313,4144.358887,4145.128418,4151.410156,4155.512695,4163.717773,4153.333496,4169.102539,4168.333496,4206.410156,4171.538574,4181.025879,4167.051270,4172.051270,3341.000000,4.000000,,,,0.000000,4.000000,4.000000,4.000000,4.000000,4.000000,4.000000,4.000000,4.000000,4.000000,4.000000,4.000000,4.000000,4.000000,4.000000,100.000000,,,,,,,,,,,,,,,,,,,,,,,,,,,,,,,,,,,,,,,,,,,,,,,,,,,,,,,,,,,,,,,,,,,,,,
1605176589.754075,107.000000,0.000000,4133.461426,4160.641113,4158.205078,4172.948730,4155.128418,4173.205078,4172.692383,4179.615234,4169.743652,4236.922852,4186.538574,4187.307617,4183.333496,4181.410156,2868.000000,4.000000,,,,0.000000,4.000000,4.000000,4.000000,4.000000,4.000000,4.000000,4.000000,4.000000,4.000000,4.000000,4.000000,4.000000,4.000000,4.000000,100.000000,,,,,,,,,,,,,,,,,,,,,,,,,,,,,,,,,,,,,,,,,,,,,,,,,,,,,,,,,,,,,,,,,,,,,,
1605176589.761856,108.000000,0.000000,4137.179688,4158.846191,4158.077148,4169.871582,4161.538574,4177.307617,4175.128418,4187.051270,4173.077148,4255.128418,4189.871582,4186.538574,4193.333496,4183.589844,2190.000000,4.000000,,,,0.000000,4.000000,4.000000,4.000000,4.000000,4.000000,4.000000,4.000000,4.000000,4.000000,4.000000,4.000000,4.000000,4.000000,4.000000,100.000000,,,,,,,,,,,,,,,,,,,,,,,,,,,,,,,,,,,,,,,,,,,,,,,,,,,,,,,,,,,,,,,,,,,,,,
1605176589.769737,109.000000,0.000000,4124.487305,4152.051270,4152.820313,4164.615234,4161.025879,4170.128418,4164.615234,4182.307617,4173.846191,4245.256348,4183.589844,4181.794922,4184.102539,4177.436035,2359.000000,4.000000,,,,0.000000,4.000000,4.000000,4.000000,4.000000,4.000000,4.000000,4.000000,4.000000,4.000000,4.000000,4.000000,4.000000,4.000000,4.000000,100.000000,,,,,,,,,,,,,,,,,,,,,,,,,,,,,,,,,,,,,,,,,,,,,,,,,,,,,,,,,,,,,,,,,,,,,,
1605176589.777518,110.000000,0.000000,4129.487305,4160.512695,4157.820313,4172.563965,4158.974121,4168.333496,4166.153809,4177.179688,4174.230957,4248.461426,4188.077148,4189.230957,4182.051270,4183.333496,3341.000000,4.000000,,,,0.000000,4.000000,4.000000,4.000000,4.000000,4.000000,4.000000,4.000000,4.000000,4.000000,4.000000,4.000000,4.000000,4.000000,4.000000,100.000000,,,,,,,,,,,,,,,,,,,,,,,,,,,,,,,,,,,,,,,,,,,,,,,,,,,,,,,,,,,,,,,,,,,,,,
1605176589.785399,111.000000,0.000000,4145.512695,4168.589844,4171.538574,4178.333496,4161.922852,4174.871582,4173.846191,4182.436035,4175.641113,4266.282227,4197.820313,4199.487305,4191.922852,4193.589844,2868.000000,4.000000,,,,0.000000,4.000000,4.000000,4.000000,4.000000,4.000000,4.000000,4.000000,4.000000,4.000000,4.000000,4.000000,4.000000,4.000000,4.000000,100.000000,,,,,,,,,,,,,,,,,,,,,,,,,,,,,,,,,,,,,,,,,,,,,,,,,,,,,,,,,,,,,,,,,,,,,,
1605176589.793180,112.000000,0.000000,4145.128418,4163.333496,4173.077148,4172.948730,4162.948730,4168.717773,4164.487305,4179.487305,4175.128418,4259.743652,4192.948730,4191.922852,4188.589844,4190.641113,2190.000000,4.000000,,,,0.000000,4.000000,4.000000,4.000000,4.000000,4.000000,4.000000,4.000000,4.000000,4.000000,4.000000,4.000000,4.000000,4.000000,4.000000,100.000000,,,,,,,,,,,,,,,,,,,,,,,,,,,,,,,,,,,,,,,,,,,,,,,,,,,,,,,,,,,,,,,,,,,,,,
1605176589.801161,113.000000,0.000000,4148.077148,4170.384766,4175.384766,4178.333496,4158.205078,4162.948730,4159.871582,4173.974121,4174.487305,4252.563965,4189.230957,4190.256348,4183.461426,4192.948730,2359.000000,4.000000,,,,0.000000,4.000000,4.000000,4.000000,4.000000,4.000000,4.000000,4.000000,4.000000,4.000000,4.000000,4.000000,4.000000,4.000000,4.000000,100.000000,,,,,,,,,,,,,,,,,,,,,,,,,,,,,,,,,,,,,,,,,,,,,,,,,,,,,,,,,,,,,,,,,,,,,,
1605176589.809042,114.000000,0.000000,4166.153809,4185.641113,4186.666504,4187.179688,4157.820313,4165.384766,4165.641113,4178.333496,4174.743652,4268.589844,4198.589844,4204.358887,4191.538574,4206.666504,3341.000000,4.000000,,,,0.000000,4.000000,4.000000,4.000000,4.000000,4.000000,4.000000,4.000000,4.000000,4.000000,4.000000,4.000000,4.000000,4.000000,4.000000,100.000000,,,,,,,,,,,,,,,,,,,,,,,,,,,,,,,,,,,,,,,,,,,,,,,,,,,,,,,,,,,,,,,,,,,,,,
1605176589.817023,115.000000,0.000000,4173.846191,4172.563965,4177.692383,4170.384766,4162.307617,4154.358887,4148.846191,4167.436035,4172.307617,4262.563965,4196.282227,4200.000000,4189.102539,4202.820313,2868.000000,4.000000,,,,0.000000,4.000000,4.000000,4.000000,4.000000,4.000000,4.000000,4.000000,4.000000,4.000000,4.000000,4.000000,4.000000,4.000000,4.000000,100.000000,,,,,,,,,,,,,,,,,,,,,,,,,,,,,,,,,,,,,,,,,,,,,,,,,,,,,,,,,,,,,,,,,,,,,,
1605176589.824904,116.000000,0.000000,4166.153809,4153.846191,4159.743652,4146.922852,4159.871582,4136.666504,4119.615234,4143.205078,4163.846191,4223.717773,4176.153809,4181.794922,4166.922852,4182.692383,2190.000000,4.000000,,,,0.000000,4.000000,4.000000,4.000000,4.000000,4.000000,4.000000,4.000000,4.000000,4.000000,4.000000,4.000000,4.000000,4.000000,4.000000,100.000000,,,,,,,,,,,,,,,,,,,,,,,,,,,,,,,,,,,,,,,,,,,,,,,,,,,,,,,,,,,,,,,,,,,,,,
1605176589.832885,117.000000,0.000000,4173.589844,4155.512695,4161.025879,4150.897461,4152.563965,4133.205078,4113.846191,4134.871582,4159.102539,4198.205078,4167.692383,4178.717773,4160.256348,4185.128418,2359.000000,4.000000,,,,0.000000,4.000000,4.000000,4.000000,4.000000,4.000000,4.000000,4.000000,4.000000,4.000000,4.000000,4.000000,4.000000,4.000000,4.000000,100.000000,,,,,,,,,,,,,,,,,,,,,,,,,,,,,,,,,,,,,,,,,,,,,,,,,,,,,,,,,,,,,,,,,,,,,,
1605176589.840766,118.000000,0.000000,4207.820313,4161.666504,4171.153809,4168.333496,4152.307617,4140.512695,4129.230957,4144.615234,4162.948730,4207.051270,4178.333496,4187.692383,4182.179688,4211.153809,3341.000000,4.000000,,,,0.000000,4.000000,4.000000,4.000000,4.000000,4.000000,4.000000,4.000000,4.000000,4.000000,4.000000,4.000000,4.000000,4.000000,4.000000,100.000000,,,,,,,,,,,,,,,,,,,,,,,,,,,,,,,,,,,,,,,,,,,,,,,,,,,,,,,,,,,,,,,,,,,,,,
1605176589.848747,119.000000,0.000000,4225.897461,4166.538574,4182.820313,4177.563965,4154.615234,4148.333496,4138.333496,4153.461426,4168.077148,4226.282227,4187.307617,4196.410156,4198.461426,4228.717773,2868.000000,4.000000,,,,0.000000,4.000000,4.000000,4.000000,4.000000,4.000000,4.000000,4.000000,4.000000,4.000000,4.000000,4.000000,4.000000,4.000000,4.000000,100.000000,,,,,,,,,,,,,,,,,,,,,,,,,,,,,,,,,,,,,,,,,,,,,,,,,,,,,,,,,,,,,,,,,,,,,,
1605176589.856628,120.000000,0.000000,4213.461426,4169.102539,4190.641113,4173.717773,4156.410156,4142.692383,4127.563965,4147.948730,4166.666504,4227.307617,4183.717773,4197.307617,4190.512695,4228.205078,2190.000000,4.000000,,,,0.000000,4.000000,4.000000,4.000000,4.000000,4.000000,4.000000,4.000000,4.000000,4.000000,4.000000,4.000000,4.000000,4.000000,4.000000,100.000000,0.567267,0.427068,1.051396,0.554818,0.345822,1.171514,0.340969,0.741385,0.837694,0.359057,0.949868,0.487228,0.846128,1.073834,0.538102,1.203381,0.370904,0.558816,1.977628,0.717339,0.580133,0.051939,0.138268,0.093629,0.057427,0.566282,0.344941,0.470522,0.261509,0.251841,2.892804,1.183574,1.614693,0.501253,0.462220,1.595156,1.093697,1.092332,0.444767,0.310300,0.220603,0.146956,0.205767,0.121983,0.094976,5.996392,1.913543,2.145537,1.202746,0.609492,1.178289,0.378217,0.532166,0.323152,0.206987,0.559811,0.546154,0.498709,0.258648,0.218303,0.861136,0.704787,0.614793,0.421686,0.357875,0.364077,0.618416,0.767021,0.551934,0.377942
1605176589.864608,121.000000,0.000000,4222.692383,4167.179688,4185.384766,4156.666504,4156.794922,4131.282227,4115.641113,4137.692383,4163.077148,4214.871582,4178.461426,4196.282227,4184.230957,4228.077148,2359.000000,4.000000,,,,0.000000,4.000000,4.000000,4.000000,4.000000,4.000000,4.000000,4.000000,4.000000,4.000000,4.000000,4.000000,4.000000,4.000000,4.000000,100.000000,,,,,,,,,,,,,,,,,,,,,,,,,,,,,,,,,,,,,,,,,,,,,,,,,,,,,,,,,,,,,,,,,,,,,,
1605176589.872489,122.000000,0.000000,4252.820313,4168.846191,4180.256348,4153.461426,4156.025879,4134.743652,4120.897461,4137.948730,4166.922852,4214.743652,4180.384766,4197.307617,4192.692383,4231.922852,3341.000000,4.000000,,,,0.000000,4.000000,4.000000,4.000000,4.000000,4.000000,4.000000,4.000000,4.000000,4.000000,4.000000,4.000000,4.000000,4.000000,4.000000,100.000000,,,,,,,,,,,,,,,,,,,,,,,,,,,,,,,,,,,,,,,,,,,,,,,,,,,,,,,,,,,,,,,,,,,,,,
1605176589.880270,123.000000,0.000000,4243.846191,4172.307617,4179.102539,4163.846191,4157.436035,4137.179688,4120.641113,4140.641113,4170.384766,4220.256348,4181.538574,4189.615234,4190.384766,4220.000000,2868.000000,4.000000,,,,0.000000,4.000000,4.000000,4.000000,4.000000,4.000000,4.000000,4.000000,4.000000,4.000000,4.000000,4.000000,4.000000,4.000000,4.000000,100.000000,,,,,,,,,,,,,,,,,,,,,,,,,,,,,,,,,,,,,,,,,,,,,,,,,,,,,,,,,,,,,,,,,,,,,,
1605176589.888151,124.000000,0.000000,4213.717773,4165.256348,4173.461426,4163.974121,4160.769043,4132.948730,4107.051270,4137.692383,4166.666504,4216.666504,4179.871582,4181.922852,4179.230957,4204.615234,2190.000000,4.000000,,,,0.000000,4.000000,4.000000,4.000000,4.000000,4.000000,4.000000,4.000000,4.000000,4.000000,4.000000,4.000000,4.000000,4.000000,4.000000,100.000000,,,,,,,,,,,,,,,,,,,,,,,,,,,,,,,,,,,,,,,,,,,,,,,,,,,,,,,,,,,,,,,,,,,,,,
1605176589.895932,125.000000,0.000000,4208.717773,4160.512695,4169.487305,4160.000000,4160.384766,4140.256348,4113.333496,4142.820313,4162.436035,4214.230957,4180.256348,4185.000000,4178.333496,4205.512695,2359.000000,4.000000,,,,0.000000,4.000000,4.000000,4.000000,4.000000,4.000000,4.000000,4.000000,4.000000,4.000000,4.000000,4.000000,4.000000,4.000000,4.000000,100.000000,,,,,,,,,,,,,,,,,,,,,,,,,,,,,,,,,,,,,,,,,,,,,,,,,,,,,,,,,,,,,,,,,,,,,,
1605176589.903813,126.000000,0.000000,4199.743652,4163.077148,4170.256348,4158.589844,4161.538574,4148.333496,4133.333496,4150.512695,4165.384766,4213.846191,4179.487305,4186.282227,4178.717773,4204.487305,3341.000000,4.000000,,,,0.000000,4.000000,4.000000,4.000000,4.000000,4.000000,4.000000,4.000000,4.000000,4.000000,4.000000,4.000000,4.000000,4.000000,4.000000,100.000000,,,,,,,,,,,,,,,,,,,,,,,,,,,,,,,,,,,,,,,,,,,,,,,,,,,,,,,,,,,,,,,,,,,,,,
1605176589.911594,127.000000,0.000000,4180.897461,4162.692383,4173.461426,4161.538574,4167.820313,4150.384766,4142.948730,4151.922852,4169.871582,4218.717773,4180.000000,4183.846191,4175.512695,4195.256348,53.000000,4.000000,,,,0.000000,4.000000,4.000000,4.000000,4.000000,4.000000,4.000000,4.000000,4.000000,4.000000,4.000000,4.000000,4.000000,4.000000,4.000000,100.000000,,,,,,,,,,,,,,,,,,,,,,,,,,,,,,,,,,,,,,,,,,,,,,,,,,,,,,,,,,,,,,,,,,,,,,
1605176589.919575,0.000000,0.000000,4176.538574,4158.333496,4173.589844,4164.615234,4170.000000,4153.333496,4142.179688,4153.461426,4167.563965,4226.538574,4182.179688,4188.333496,4171.282227,4191.794922,3765.000000,4.000000,,,,0.000000,4.000000,4.000000,4.000000,4.000000,4.000000,4.000000,4.000000,4.000000,4.000000,4.000000,4.000000,4.000000,4.000000,4.000000,100.000000,,,,,,,,,,,,,,,,,,,,,,,,,,,,,,,,,,,,,,,,,,,,,,,,,,,,,,,,,,,,,,,,,,,,,,
1605176589.927456,1.000000,0.000000,4170.512695,4156.538574,4172.307617,4163.846191,4166.153809,4155.641113,4148.717773,4160.256348,4168.846191,4233.717773,4182.820313,4193.333496,4174.102539,4193.461426,4060.000000,4.000000,,,,0.000000,4.000000,4.000000,4.000000,4.000000,4.000000,4.000000,4.000000,4.000000,4.000000,4.000000,4.000000,4.000000,4.000000,4.000000,100.000000,,,,,,,,,,,,,,,,,,,,,,,,,,,,,,,,,,,,,,,,,,,,,,,,,,,,,,,,,,,,,,,,,,,,,,
1605176589.935338,2.000000,0.000000,4155.897461,4158.205078,4174.487305,4164.871582,4164.230957,4160.384766,4165.384766,4167.563965,4172.948730,4238.589844,4187.948730,4192.692383,4180.256348,4190.641113,3780.000000,4.000000,,,,0.000000,4.000000,4.000000,4.000000,4.000000,4.000000,4.000000,4.000000,4.000000,4.000000,4.000000,4.000000,4.000000,4.000000,4.000000,100.000000,,,,,,,,,,,,,,,,,,,,,,,,,,,,,,,,,,,,,,,,,,,,,,,,,,,,,,,,,,,,,,,,,,,,,,
1605176589.943119,3.000000,0.000000,4157.820313,4165.897461,4181.282227,4180.384766,4164.743652,4172.307617,4176.282227,4175.000000,4174.358887,4252.563965,4200.512695,4196.666504,4188.333496,4195.128418,4221.000000,4.000000,,,,0.000000,4.000000,4.000000,4.000000,4.000000,4.000000,4.000000,4.000000,4.000000,4.000000,4.000000,4.000000,4.000000,4.000000,4.000000,100.000000,,,,,,,,,,,,,,,,,,,,,,,,,,,,,,,,,,,,,,,,,,,,,,,,,,,,,,,,,,,,,,,,,,,,,,
1605176589.951100,4.000000,0.000000,4165.512695,4167.820313,4177.948730,4182.179688,4163.077148,4170.128418,4165.641113,4174.230957,4175.512695,4261.153809,4203.461426,4198.974121,4185.897461,4197.692383,3478.000000,4.000000,,,,0.000000,4.000000,4.000000,4.000000,4.000000,4.000000,4.000000,4.000000,4.000000,4.000000,4.000000,4.000000,4.000000,4.000000,4.000000,100.000000,,,,,,,,,,,,,,,,,,,,,,,,,,,,,,,,,,,,,,,,,,,,,,,,,,,,,,,,,,,,,,,,,,,,,,
1605176589.958981,5.000000,0.000000,4154.871582,4158.461426,4168.333496,4166.922852,4167.692383,4160.897461,4152.948730,4167.307617,4173.846191,4254.871582,4198.333496,4192.307617,4179.743652,4186.282227,3430.000000,4.000000,,,,0.000000,4.000000,4.000000,4.000000,4.000000,4.000000,4.000000,4.000000,4.000000,4.000000,4.000000,4.000000,4.000000,4.000000,4.000000,100.000000,,,,,,,,,,,,,,,,,,,,,,,,,,,,,,,,,,,,,,,,,,,,,,,,,,,,,,,,,,,,,,,,,,,,,,
1605176589.966962,6.000000,0.000000,4140.641113,4148.589844,4160.641113,4161.025879,4177.692383,4165.256348,4156.410156,4167.948730,4172.436035,4251.282227,4196.153809,4187.692383,4180.641113,4178.846191,4051.000000,4.000000,,,,0.000000,4.000000,4.000000,4.000000,4.000000,4.000000,4.000000,4.000000,4.000000,4.000000,4.000000,4.000000,4.000000,4.000000,4.000000,100.000000,,,,,,,,,,,,,,,,,,,,,,,,,,,,,,,,,,,,,,,,,,,,,,,,,,,,,,,,,,,,,,,,,,,,,,
1605176589.974843,7.000000,0.000000,4144.615234,4157.436035,4164.358887,4169.230957,4177.307617,4175.384766,4172.051270,4181.538574,4180.256348,4263.846191,4199.358887,4197.179688,4187.436035,4189.230957,3578.000000,4.000000,,,,0.000000,4.000000,4.000000,4.000000,4.000000,4.000000,4.000000,4.000000,4.000000,4.000000,4.000000,4.000000,4.000000,4.000000,4.000000,100.000000,,,,,,,,,,,,,,,,,,,,,,,,,,,,,,,,,,,,,,,,,,,,,,,,,,,,,,,,,,,,,,,,,,,,,,
1605176589.982824,8.000000,0.000000,4152.948730,4173.205078,4180.128418,4185.641113,4173.205078,4178.589844,4185.256348,4193.461426,4189.743652,4287.436035,4210.128418,4206.025879,4193.589844,4196.922852,1163.000000,4.000000,,,,0.000000,4.000000,4.000000,4.000000,4.000000,4.000000,4.000000,4.000000,4.000000,4.000000,4.000000,4.000000,4.000000,4.000000,4.000000,100.000000,0.726716,0.326326,0.827841,0.675442,0.408939,1.716595,0.507545,0.601086,0.932388,0.413439,1.334154,0.362070,0.622710,1.169265,0.653947,1.541633,0.399800,0.519187,2.016839,0.868602,0.663028,0.082385,0.158940,0.127607,0.054924,0.745216,0.349372,0.452825,0.275419,0.297512,3.361267,1.099898,1.468766,0.543040,0.512391,1.950678,0.972796,1.029686,0.461636,0.363327,0.246208,0.132470,0.181298,0.111701,0.100588,6.985244,2.074615,1.902918,1.213712,0.750164,1.406258,0.403317,0.498997,0.341369,0.243871,0.655586,0.496192,0.446180,0.276181,0.225592,0.829427,0.750904,0.568496,0.420150,0.389590,0.318237,0.591174,0.681276,0.548458,0.378108
1605176589.990705,9.000000,0.000000,4145.256348,4169.871582,4183.717773,4191.794922,4177.563965,4179.230957,4188.717773,4191.538574,4186.153809,4296.153809,4216.794922,4198.974121,4190.128418,4188.974121,4367.000000,4.000000,,,,0.000000,4.000000,4.000000,4.000000,4.000000,4.000000,4.000000,4.000000,4.000000,4.000000,4.000000,4.000000,4.000000,4.000000,4.000000,100.000000,,,,,,,,,,,,,,,,,,,,,,,,,,,,,,,,,,,,,,,,,,,,,,,,,,,,,,,,,,,,,,,,,,,,,,
1605176589.998686,10.000000,0.000000,4131.538574,4157.692383,4174.358887,4179.743652,4181.410156,4177.563965,4180.256348,4182.051270,4178.974121,4282.179688,4208.974121,4192.820313,4184.102539,4184.615234,3339.000000,4.000000,,,,0.000000,4.000000,4.000000,4.000000,4.000000,4.000000,4.000000,4.000000,4.000000,4.000000,4.000000,4.000000,4.000000,4.000000,4.000000,100.000000,,,,,,,,,,,,,,,,,,,,,,,,,,,,,,,,,,,,,,,,,,,,,,,,,,,,,,,,,,,,,,,,,,,,,,
1605176590.006567,11.000000,0.000000,4135.128418,4163.846191,4182.563965,4178.461426,4178.589844,4175.897461,4172.692383,4181.153809,4181.538574,4277.436035,4208.077148,4202.307617,4189.487305,4195.000000,2869.000000,4.000000,,,,0.000000,4.000000,4.000000,4.000000,4.000000,4.000000,4.000000,4.000000,4.000000,4.000000,4.000000,4.000000,4.000000,4.000000,4.000000,100.000000,,,,,,,,,,,,,,,,,,,,,,,,,,,,,,,,,,,,,,,,,,,,,,,,,,,,,,,,,,,,,,,,,,,,,,
1605176590.014348,12.000000,0.000000,4143.717773,4178.461426,4197.307617,4195.384766,4173.717773,4177.051270,4175.384766,4188.333496,4186.922852,4295.641113,4220.128418,4209.358887,4198.589844,4202.307617,2192.000000,4.000000,,,,0.000000,4.000000,4.000000,4.000000,4.000000,4.000000,4.000000,4.000000,4.000000,4.000000,4.000000,4.000000,4.000000,4.000000,4.000000,100.000000,,,,,,,,,,,,,,,,,,,,,,,,,,,,,,,,,,,,,,,,,,,,,,,,,,,,,,,,,,,,,,,,,,,,,,
1605176590.022229,13.000000,0.000000,4134.358887,4168.974121,4179.871582,4186.410156,4169.743652,4172.692383,4168.205078,4181.282227,4183.589844,4295.128418,4216.410156,4198.077148,4190.384766,4191.025879,2360.000000,4.000000,,,,0.000000,4.000000,4.000000,4.000000,4.000000,4.000000,4.000000,4.000000,4.000000,4.000000,4.000000,4.000000,4.000000,4.000000,4.000000,100.000000,,,,,,,,,,,,,,,,,,,,,,,,,,,,,,,,,,,,,,,,,,,,,,,,,,,,,,,,,,,,,,,,,,,,,,
1605176590.030010,14.000000,0.000000,4123.589844,4149.743652,4155.512695,4157.948730,4170.128418,4168.077148,4157.820313,4165.128418,4174.871582,4269.615234,4203.846191,4187.051270,4174.743652,4178.333496,3339.000000,4.000000,,,,0.000000,4.000000,4.000000,4.000000,4.000000,4.000000,4.000000,4.000000,4.000000,4.000000,4.000000,4.000000,4.000000,4.000000,4.000000,100.000000,,,,,,,,,,,,,,,,,,,,,,,,,,,,,,,,,,,,,,,,,,,,,,,,,,,,,,,,,,,,,,,,,,,,,,
1605176590.037891,15.000000,0.000000,4138.333496,4163.461426,4168.717773,4174.230957,4171.666504,4179.615234,4176.794922,4175.128418,4178.205078,4273.974121,4209.358887,4198.974121,4183.077148,4188.333496,2869.000000,4.000000,,,,0.000000,4.000000,4.000000,4.000000,4.000000,4.000000,4.000000,4.000000,4.000000,4.000000,4.000000,4.000000,4.000000,4.000000,4.000000,100.000000,,,,,,,,,,,,,,,,,,,,,,,,,,,,,,,,,,,,,,,,,,,,,,,,,,,,,,,,,,,,,,,,,,,,,,
1605176590.045672,16.000000,0.000000,4153.717773,4185.897461,4183.974121,4206.282227,4173.333496,4188.077148,4195.128418,4197.051270,4186.666504,4302.179688,4220.384766,4206.282227,4197.563965,4197.820313,0.000000,4.000000,,,,0.000000,4.000000,4.000000,4.000000,4.000000,4.000000,4.000000,4.000000,4.000000,4.000000,4.000000,4.000000,4.000000,4.000000,4.000000,100.000000,,,,,,,,,,,,,,,,,,,,,,,,,,,,,,,,,,,,,,,,,,,,,,,,,,,,,,,,,,,,,,,,,,,,,,
1605176590.053553,17.000000,0.000000,4137.307617,4169.230957,4162.436035,4179.487305,4176.410156,4173.974121,4173.717773,4188.077148,4185.641113,4296.282227,4216.153809,4191.410156,4184.743652,4183.461426,0.000000,4.000000,,,,0.000000,4.000000,4.000000,4.000000,4.000000,4.000000,4.000000,4.000000,4.000000,4.000000,4.000000,4.000000,4.000000,4.000000,4.000000,100.000000,,,,,,,,,,,,,,,,,,,,,,,,,,,,,,,,,,,,,,,,,,,,,,,,,,,,,,,,,,,,,,,,,,,,,,
1605176590.061334,18.000000,0.000000,4121.922852,4151.666504,4148.205078,4150.897461,4176.282227,4168.846191,4159.102539,4176.922852,4183.717773,4275.128418,4208.205078,4186.153809,4174.102539,4175.000000,0.000000,4.000000,,,,0.000000,4.000000,4.000000,4.000000,4.000000,4.000000,4.000000,4.000000,4.000000,4.000000,4.000000,4.000000,4.000000,4.000000,4.000000,100.000000,,,,,,,,,,,,,,,,,,,,,,,,,,,,,,,,,,,,,,,,,,,,,,,,,,,,,,,,,,,,,,,,,,,,,,
1605176590.069215,19.000000,0.000000,4136.025879,4172.948730,4165.128418,4177.948730,4177.179688,4184.102539,4184.102539,4192.179688,4184.358887,4281.282227,4213.974121,4197.692383,4184.743652,4185.512695,0.000000,4.000000,,,,0.000000,4.000000,4.000000,4.000000,4.000000,4.000000,4.000000,4.000000,4.000000,4.000000,4.000000,4.000000,4.000000,4.000000,4.000000,100.000000,,,,,,,,,,,,,,,,,,,,,,,,,,,,,,,,,,,,,,,,,,,,,,,,,,,,,,,,,,,,,,,,,,,,,,
1605176590.076996,20.000000,0.000000,4161.666504,4200.641113,4182.179688,4210.897461,4185.384766,4196.538574,4211.538574,4206.666504,4188.461426,4313.333496,4228.717773,4206.153809,4197.436035,4195.384766,0.000000,4.000000,,,,0.000000,4.000000,4.000000,4.000000,4.000000,4.000000,4.000000,4.000000,4.000000,4.000000,4.000000,4.000000,4.000000,4.000000,4.000000,100.000000,,,,,,,,,,,,,,,,,,,,,,,,,,,,,,,,,,,,,,,,,,,,,,,,,,,,,,,,,,,,,,,,,,,,,,
1605176590.084877,21.000000,0.000000,4163.974121,4195.512695,4184.743652,4206.538574,4187.820313,4192.307617,4212.307617,4204.743652,4194.615234,4332.051270,4235.512695,4206.282227,4200.769043,4195.641113,0.000000,4.000000,,,,0.000000,4.000000,4.000000,4.000000,4.000000,4.000000,4.000000,4.000000,4.000000,4.000000,4.000000,4.000000,4.000000,4.000000,4.000000,100.000000,,,,,,,,,,,,,,,,,,,,,,,,,,,,,,,,,,,,,,,,,,,,,,,,,,,,,,,,,,,,,,,,,,,,,,
1605176590.092658,22.000000,0.000000,4149.743652,4178.205078,4180.256348,4189.230957,4188.205078,4184.871582,4201.282227,4199.615234,4195.128418,4325.641113,4233.846191,4202.820313,4199.358887,4194.102539,0.000000,4.000000,,,,0.000000,4.000000,4.000000,4.000000,4.000000,4.000000,4.000000,4.000000,4.000000,4.000000,4.000000,4.000000,4.000000,4.000000,4.000000,100.000000,,,,,,,,,,,,,,,,,,,,,,,,,,,,,,,,,,,,,,,,,,,,,,,,,,,,,,,,,,,,,,,,,,,,,,
1605176590.100539,23.000000,0.000000,4150.641113,4176.025879,4174.743652,4181.794922,4194.230957,4180.512695,4191.538574,4192.692383,4187.051270,4318.205078,4230.897461,4199.871582,4196.153809,4191.922852,0.000000,4.000000,,,,0.000000,4.000000,4.000000,4.000000,4.000000,4.000000,4.000000,4.000000,4.000000,4.000000,4.000000,4.000000,4.000000,4.000000,4.000000,100.000000,,,,,,,,,,,,,,,,,,,,,,,,,,,,,,,,,,,,,,,,,,,,,,,,,,,,,,,,,,,,,,,,,,,,,,
1605176590.108320,24.000000,0.000000,4165.897461,4190.769043,4183.846191,4195.769043,4195.897461,4185.000000,4196.922852,4194.358887,4187.051270,4327.307617,4233.333496,4203.205078,4200.000000,4197.436035,0.000000,4.000000,,,,0.000000,4.000000,4.000000,4.000000,4.000000,4.000000,4.000000,4.000000,4.000000,4.000000,4.000000,4.000000,4.000000,4.000000,4.000000,100.000000,1.009726,0.276164,0.681845,0.808396,0.473997,2.686215,0.786170,0.542437,1.027545,0.491448,1.866527,0.277734,0.482387,1.206217,0.808393,2.135561,0.475398,0.534186,2.000305,1.071887,0.838414,0.136144,0.191854,0.167479,0.054081,1.020023,0.370986,0.454740,0.307642,0.353750,4.043702,1.006223,1.251194,0.611694,0.587122,2.389526,0.895076,0.923328,0.503507,0.435373,0.295326,0.128315,0.147378,0.103193,0.109327,8.624096,2.304457,1.685902,1.253018,0.932945,1.795278,0.441571,0.466435,0.369590,0.294026,0.775034,0.440781,0.403768,0.293235,0.243352,0.775848,0.824457,0.546530,0.418767,0.425065,0.317200,0.578923,0.613751,0.517209,0.392536
1605176590.116201,25.000000,0.000000,4167.820313,4196.282227,4196.153809,4209.743652,4193.717773,4188.589844,4200.512695,4198.205078,4193.077148,4335.000000,4237.307617,4205.769043,4199.358887,4202.563965,0.000000,4.000000,,,,0.000000,4.000000,4.000000,4.000000,4.000000,4.000000,4.000000,4.000000,4.000000,4.000000,4.000000,4.000000,4.000000,4.000000,4.000000,100.000000,,,,,,,,,,,,,,,,,,,,,,,,,,,,,,,,,,,,,,,,,,,,,,,,,,,,,,,,,,,,,,,,,,,,,,
1605176590.124182,26.000000,0.000000,4161.410156,4186.922852,4192.563965,4202.948730,4193.077148,4186.025879,4191.794922,4190.769043,4193.077148,4329.487305,4237.179688,4202.179688,4189.487305,4197.436035,0.000000,4.000000,,,,0.000000,4.000000,4.000000,4.000000,4.000000,4.000000,4.000000,4.000000,4.000000,4.000000,4.000000,4.000000,4.000000,4.000000,4.000000,100.000000,,,,,,,,,,,,,,,,,,,,,,,,,,,,,,,,,,,,,,,,,,,,,,,,,,,,,,,,,,,,,,,,,,,,,,
1605176590.132163,27.000000,0.000000,4166.025879,4183.974121,4185.256348,4197.179688,4187.051270,4186.153809,4190.000000,4184.230957,4192.051270,4326.025879,4233.717773,4199.358887,4187.820313,4193.589844,0.000000,4.000000,,,,0.000000,4.000000,4.000000,4.000000,4.000000,4.000000,4.000000,4.000000,4.000000,4.000000,4.000000,4.000000,4.000000,4.000000,4.000000,100.000000,,,,,,,,,,,,,,,,,,,,,,,,,,,,,,,,,,,,,,,,,,,,,,,,,,,,,,,,,,,,,,,,,,,,,,
1605176590.140044,28.000000,0.000000,4163.717773,4182.307617,4180.000000,4193.717773,4182.692383,4184.615234,4190.256348,4183.205078,4191.410156,4320.128418,4230.641113,4195.512695,4186.794922,4192.436035,0.000000,4.000000,,,,0.000000,4.000000,4.000000,4.000000,4.000000,4.000000,4.000000,4.000000,4.000000,4.000000,4.000000,4.000000,4.000000,4.000000,4.000000,100.000000,,,,,,,,,,,,,,,,,,,,,,,,,,,,,,,,,,,,,,,,,,,,,,,,,,,,,,,,,,,,,,,,,,,,,,
1605176590.148024,29.000000,0.000000,4154.871582,4181.282227,4176.282227,4187.820313,4185.256348,4179.743652,4186.153809,4182.563965,4191.282227,4313.589844,4230.000000,4193.846191,4182.820313,4192.051270,0.000000,4.000000,,,,0.000000,4.000000,4.000000,4.000000,4.000000,4.000000,4.000000,4.000000,4.000000,4.000000,4.000000,4.000000,4.000000,4.000000,4.000000,100.000000,,,,,,,,,,,,,,,,,,,,,,,,,,,,,,,,,,,,,,,,,,,,,,,,,,,,,,,,,,,,,,,,,,,,,,
1605176590.155905,30.000000,0.000000,4157.051270,4182.692383,4180.384766,4192.179688,4185.641113,4180.128418,4191.922852,4186.025879,4192.051270,4318.205078,4231.666504,4201.282227,4188.461426,4196.794922,0.000000,4.000000,,,,0.000000,4.000000,4.000000,4.000000,4.000000,4.000000,4.000000,4.000000,4.000000,4.000000,4.000000,4.000000,4.000000,4.000000,4.000000,100.000000,,,,,,,,,,,,,,,,,,,,,,,,,,,,,,,,,,,,,,,,,,,,,,,,,,,,,,,,,,,,,,,,,,,,,,
1605176590.163886,31.000000,0.000000,4156.538574,4177.948730,4180.256348,4193.077148,4183.461426,4185.256348,4200.128418,4191.410156,4188.717773,4321.922852,4233.077148,4204.487305,4194.358887,4197.820313,0.000000,4.000000,,,,0.000000,4.000000,4.000000,4.000000,4.000000,4.000000,4.000000,4.000000,4.000000,4.000000,4.000000,4.000000,4.000000,4.000000,4.000000,100.000000,,,,,,,,,,,,,,,,,,,,,,,,,,,,,,,,,,,,,,,,,,,,,,,,,,,,,,,,,,,,,,,,,,,,,,
1605176590.171767,32.000000,0.000000,4146.794922,4168.077148,4167.307617,4180.128418,4185.256348,4183.846191,4191.153809,4186.922852,4184.102539,4311.282227,4231.025879,4199.871582,4187.563965,4189.871582,0.000000,4.000000,,,,0.000000,4.000000,4.000000,4.000000,4.000000,4.000000,4.000000,4.000000,4.000000,4.000000,4.000000,4.000000,4.000000,4.000000,4.000000,100.000000,,,,,,,,,,,,,,,,,,,,,,,,,,,,,,,,,,,,,,,,,,,,,,,,,,,,,,,,,,,,,,,,,,,,,,
1605176590.179548,33.000000,0.000000,4150.769043,4173.077148,4169.615234,4183.846191,4185.000000,4182.051270,4189.358887,4184.615234,4188.333496,4304.358887,4229.230957,4202.051270,4183.461426,4188.461426,0.000000,4.000000,,,,0.000000,4.000000,4.000000,4.000000,4.000000,4.000000,4.000000,4.000000,4.000000,4.000000,4.000000,4.000000,4.000000,4.000000,4.000000,100.000000,,,,,,,,,,,,,,,,,,,,,,,,,,,,,,,,,,,,,,,,,,,,,,,,,,,,,,,,,,,,,,,,,,,,,,
1605176590.187429,34.000000,0.000000,4160.897461,4185.769043,4186.153809,4200.641113,4183.461426,4188.846191,4203.333496,4190.641113,4194.102539,4314.743652,4229.615234,4208.077148,4187.307617,4196.025879,0.000000,4.000000,,,,0.000000,4.000000,4.000000,4.000000,4.000000,4.000000,4.000000,4.000000,4.000000,4.000000,4.000000,4.000000,4.000000,4.000000,4.000000,100.000000,,,,,,,,,,,,,,,,,,,,,,,,,,,,,,,,,,,,,,,,,,,,,,,,,,,,,,,,,,,,,,,,,,,,,,
1605176590.195210,35.000000,0.000000,4160.384766,4186.538574,4190.641113,4202.820313,4187.692383,4192.563965,4207.179688,4193.974121,4191.282227,4325.512695,4232.307617,4207.307617,4195.641113,4198.589844,0.000000,4.000000,,,,0.000000,4.000000,4.000000,4.000000,4.000000,4.000000,4.000000,4.000000,4.000000,4.000000,4.000000,4.000000,4.000000,4.000000,4.000000,100.000000,,,,,,,,,,,,,,,,,,,,,,,,,,,,,,,,,,,,,,,,,,,,,,,,,,,,,,,,,,,,,,,,,,,,,,
1605176590.203091,36.000000,0.000000,4158.333496,4182.307617,4190.256348,4196.538574,4188.589844,4189.358887,4198.717773,4191.410156,4193.589844,4324.487305,4235.769043,4206.538574,4198.717773,4197.692383,0.000000,4.000000,,,,0.000000,4.000000,4.000000,4.000000,4.000000,4.000000,4.000000,4.000000,4.000000,4.000000,4.000000,4.000000,4.000000,4.000000,4.000000,100.000000,,,,,,,,,,,,,,,,,,,,,,,,,,,,,,,,,,,,,,,,,,,,,,,,,,,,,,,,,,,,,,,,,,,,,,
1605176590.210872,37.000000,0.000000,4166.153809,4187.051270,4193.205078,4198.461426,4186.410156,4189.102539,4197.820313,4193.077148,4202.051270,4329.871582,4239.615234,4206.282227,4196.666504,4198.974121,0.000000,4.000000,,,,0.000000,4.000000,4.000000,4.000000,4.000000,4.000000,4.000000,4.000000,4.000000,4.000000,4.000000,4.000000,4.000000,4.000000,4.000000,100.000000,,,,,,,,,,,,,,,,,,,,,,,,,,,,,,,,,,,,,,,,,,,,,,,,,,,,,,,,,,,,,,,,,,,,,,
1605176590.218753,38.000000,0.000000,4169.487305,4188.589844,4185.128418,4193.589844,4187.436035,4191.410156,4198.461426,4192.948730,4199.743652,4339.358887,4242.436035,4199.487305,4197.179688,4196.538574,0.000000,4.000000,,,,0.000000,4.000000,4.000000,4.000000,4.000000,4.000000,4.000000,4.000000,4.000000,4.000000,4.000000,4.000000,4.000000,4.000000,4.000000,100.000000,,,,,,,,,,,,,,,,,,,,,,,,,,,,,,,,,,,,,,,,,,,,,,,,,,,,,,,,,,,,,,,,,,,,,,
1605176590.226534,39.000000,0.000000,4162.820313,4185.512695,4180.128418,4185.512695,4190.000000,4191.410156,4193.717773,4187.179688,4191.922852,4335.641113,4241.025879,4198.461426,4198.461426,4199.487305,0.000000,4.000000,,,,0.000000,4.000000,4.000000,4.000000,4.000000,4.000000,4.000000,4.000000,4.000000,4.000000,4.000000,4.000000,4.000000,4.000000,4.000000,100.000000,,,,,,,,,,,,,,,,,,,,,,,,,,,,,,,,,,,,,,,,,,,,,,,,,,,,,,,,,,,,,,,,,,,,,,
1605176590.234515,40.000000,0.000000,4165.000000,4185.769043,4187.948730,4188.717773,4190.512695,4189.743652,4195.256348,4188.717773,4195.256348,4328.589844,4240.384766,4204.615234,4199.102539,4208.205078,0.000000,4.000000,,,,0.000000,4.000000,4.000000,4.000000,4.000000,4.000000,4.000000,4.000000,4.000000,4.000000,4.000000,4.000000,4.000000,4.000000,4.000000,100.000000,1.694702,0.340967,0.602526,0.918532,0.534950,3.942650,1.122193,0.560133,1.111108,0.580818,2.483925,0.235455,0.443257,1.184613,0.969136,2.925126,0.575495,0.590254,1.951429,1.286947,1.074731,0.206140,0.229461,0.205014,0.055040,1.377322,0.412389,0.469440,0.362344,0.408147,4.912090,0.946067,1.054683,0.710592,0.676350,2.857049,0.882348,0.800739,0.568585,0.509554,0.347175,0.140934,0.113414,0.097618,0.117061,10.608373,2.619264,1.538651,1.341093,1.121253,2.221193,0.494731,0.437443,0.404650,0.350182,0.906585,0.393109,0.381309,0.307989,0.270291,0.701480,0.947937,0.562479,0.431509,0.456446,0.435967,0.612714,0.596057,0.482456,0.422103
1605176590.242496,41.000000,0.000000,4172.436035,4188.205078,4186.538574,4192.179688,4190.897461,4190.256348,4202.948730,4196.538574,4201.153809,4334.743652,4242.820313,4204.615234,4201.282227,4207.563965,0.000000,4.000000,,,,0.000000,4.000000,4.000000,4.000000,4.000000,4.000000,4.000000,4.000000,4.000000,4.000000,4.000000,4.000000,4.000000,4.000000,4.000000,100.000000,,,,,,,,,,,,,,,,,,,,,,,,,,,,,,,,,,,,,,,,,,,,,,,,,,,,,,,,,,,,,,,,,,,,,,
1605176590.250378,42.000000,0.000000,4181.282227,4200.769043,4196.153809,4208.717773,4187.692383,4201.282227,4215.256348,4208.717773,4202.692383,4357.948730,4253.461426,4207.948730,4210.512695,4210.512695,0.000000,4.000000,,,,0.000000,4.000000,4.000000,4.000000,4.000000,4.000000,4.000000,4.000000,4.000000,4.000000,4.000000,4.000000,4.000000,4.000000,4.000000,100.000000,,,,,,,,,,,,,,,,,,,,,,,,,,,,,,,,,,,,,,,,,,,,,,,,,,,,,,,,,,,,,,,,,,,,,,
1605176590.258359,43.000000,0.000000,4187.820313,4213.974121,4218.333496,4228.846191,4186.922852,4208.717773,4224.871582,4218.461426,4203.974121,4375.256348,4263.333496,4219.743652,4214.743652,4221.666504,0.000000,4.000000,,,,0.000000,4.000000,4.000000,4.000000,4.000000,4.000000,4.000000,4.000000,4.000000,4.000000,4.000000,4.000000,4.000000,4.000000,4.000000,100.000000,,,,,,,,,,,,,,,,,,,,,,,,,,,,,,,,,,,,,,,,,,,,,,,,,,,,,,,,,,,,,,,,,,,,,,
1605176590.266240,44.000000,0.000000,4185.769043,4200.128418,4212.563965,4211.922852,4194.102539,4195.256348,4216.794922,4212.051270,4200.641113,4366.025879,4256.538574,4218.333496,4205.000000,4215.641113,0.000000,4.000000,,,,0.000000,4.000000,4.000000,4.000000,4.000000,4.000000,4.000000,4.000000,4.000000,4.000000,4.000000,4.000000,4.000000,4.000000,4.000000,100.000000,,,,,,,,,,,,,,,,,,,,,,,,,,,,,,,,,,,,,,,,,,,,,,,,,,,,,,,,,,,,,,,,,,,,,,
1605176590.274222,45.000000,0.000000,4186.666504,4188.077148,4197.307617,4190.128418,4195.512695,4188.717773,4204.743652,4201.153809,4197.948730,4357.820313,4248.846191,4209.615234,4200.897461,4205.000000,0.000000,4.000000,,,,0.000000,4.000000,4.000000,4.000000,4.000000,4.000000,4.000000,4.000000,4.000000,4.000000,4.000000,4.000000,4.000000,4.000000,4.000000,100.000000,,,,,,,,,,,,,,,,,,,,,,,,,,,,,,,,,,,,,,,,,,,,,,,,,,,,,,,,,,,,,,,,,,,,,,
1605176590.282103,46.000000,0.000000,4189.743652,4196.794922,4200.512695,4197.820313,4193.205078,4195.769043,4201.666504,4197.051270,4201.410156,4360.384766,4250.769043,4207.820313,4201.282227,4206.538574,0.000000,4.000000,,,,0.000000,4.000000,4.000000,4.000000,4.000000,4.000000,4.000000,4.000000,4.000000,4.000000,4.000000,4.000000,4.000000,4.000000,4.000000,100.000000,,,,,,,,,,,,,,,,,,,,,,,,,,,,,,,,,,,,,,,,,,,,,,,,,,,,,,,,,,,,,,,,,,,,,,
1605176590.290084,47.000000,0.000000,4177.948730,4191.410156,4197.692383,4201.666504,4193.589844,4189.230957,4199.230957,4190.384766,4202.051270,4345.384766,4248.461426,4206.153809,4192.692383,4202.307617,0.000000,4.000000,,,,0.000000,4.000000,4.000000,4.000000,4.000000,4.000000,4.000000,4.000000,4.000000,4.000000,4.000000,4.000000,4.000000,4.000000,4.000000,100.000000,,,,,,,,,,,,,,,,,,,,,,,,,,,,,,,,,,,,,,,,,,,,,,,,,,,,,,,,,,,,,,,,,,,,,,
1605176590.297966,48.000000,0.000000,4175.512695,4188.974121,4194.615234,4199.358887,4193.717773,4185.128418,4207.179688,4193.205078,4200.000000,4342.692383,4248.205078,4209.615234,4194.487305,4203.974121,0.000000,4.000000,,,,0.000000,4.000000,4.000000,4.000000,4.000000,4.000000,4.000000,4.000000,4.000000,4.000000,4.000000,4.000000,4.000000,4.000000,4.000000,100.000000,,,,,,,,,,,,,,,,,,,,,,,,,,,,,,,,,,,,,,,,,,,,,,,,,,,,,,,,,,,,,,,,,,,,,,
1605176590.305947,49.000000,0.000000,4192.563965,4200.384766,4202.563965,4204.358887,4193.205078,4196.666504,4220.256348,4204.487305,4204.102539,4367.436035,4259.230957,4215.512695,4207.179688,4212.307617,0.000000,4.000000,,,,0.000000,4.000000,4.000000,4.000000,4.000000,4.000000,4.000000,4.000000,4.000000,4.000000,4.000000,4.000000,4.000000,4.000000,4.000000,100.000000,,,,,,,,,,,,,,,,,,,,,,,,,,,,,,,,,,,,,,,,,,,,,,,,,,,,,,,,,,,,,,,,,,,,,,
1605176590.313829,50.000000,0.000000,4178.589844,4182.179688,4192.692383,4193.333496,4189.358887,4197.179688,4217.692383,4200.897461,4203.333496,4365.256348,4256.922852,4206.282227,4200.128418,4201.666504,0.000000,4.000000,,,,0.000000,4.000000,4.000000,4.000000,4.000000,4.000000,4.000000,4.000000,4.000000,4.000000,4.000000,4.000000,4.000000,4.000000,4.000000,100.000000,,,,,,,,,,,,,,,,,,,,,,,,,,,,,,,,,,,,,,,,,,,,,,,,,,,,,,,,,,,,,,,,,,,,,,
1605176590.321810,51.000000,0.000000,4151.794922,4165.000000,4177.820313,4184.358887,4184.102539,4187.820313,4209.871582,4193.717773,4198.974121,4336.538574,4244.230957,4197.692383,4185.512695,4188.717773,0.000000,4.000000,,,,0.000000,4.000000,4.000000,4.000000,4.000000,4.000000,4.000000,4.000000,4.000000,4.000000,4.000000,4.000000,4.000000,4.000000,4.000000,100.000000,,,,,,,,,,,,,,,,,,,,,,,,,,,,,,,,,,,,,,,,,,,,,,,,,,,,,,,,,,,,,,,,,,,,,,
1605176590.329691,52.000000,0.000000,4174.615234,4194.102539,4185.512695,4201.666504,4183.461426,4190.128418,4211.538574,4198.461426,4200.384766,4333.717773,4244.871582,4200.000000,4184.743652,4194.358887,0.000000,4.000000,,,,0.000000,4.000000,4.000000,4.000000,4.000000,4.000000,4.000000,4.000000,4.000000,4.000000,4.000000,4.000000,4.000000,4.000000,4.000000,100.000000,,,,,,,,,,,,,,,,,,,,,,,,,,,,,,,,,,,,,,,,,,,,,,,,,,,,,,,,,,,,,,,,,,,,,,
1605176590.337672,53.000000,0.000000,4205.897461,4216.538574,4194.230957,4210.769043,4184.615234,4195.384766,4212.563965,4200.769043,4201.922852,4342.563965,4248.589844,4201.666504,4184.358887,4197.179688,0.000000,4.000000,,,,0.000000,4.000000,4.000000,4.000000,4.000000,4.000000,4.000000,4.000000,4.000000,4.000000,4.000000,4.000000,4.000000,4.000000,4.000000,100.000000,,,,,,,,,,,,,,,,,,,,,,,,,,,,,,,,,,,,,,,,,,,,,,,,,,,,,,,,,,,,,,,,,,,,,,
1605176590.345553,54.000000,0.000000,4197.436035,4210.384766,4190.256348,4201.666504,4181.538574,4193.077148,4207.051270,4195.897461,4199.487305,4337.948730,4246.922852,4200.769043,4182.179688,4193.077148,0.000000,4.000000,,,,0.000000,4.000000,4.000000,4.000000,4.000000,4.000000,4.000000,4.000000,4.000000,4.000000,4.000000,4.000000,4.000000,4.000000,4.000000,100.000000,,,,,,,,,,,,,,,,,,,,,,,,,,,,,,,,,,,,,,,,,,,,,,,,,,,,,,,,,,,,,,,,,,,,,,
1605176590.353534,55.000000,0.000000,4174.871582,4202.436035,4184.871582,4189.743652,4184.871582,4185.384766,4191.410156,4187.692383,4197.307617,4324.615234,4242.563965,4199.487305,4176.538574,4191.922852,0.000000,4.000000,,,,0.000000,4.000000,4.000000,4.000000,4.000000,4.000000,4.000000,4.000000,4.000000,4.000000,4.000000,4.000000,4.000000,4.000000,4.000000,100.000000,,,,,,,,,,,,,,,,,,,,,,,,,,,,,,,,,,,,,,,,,,,,,,,,,,,,,,,,,,,,,,,,,,,,,,
1605176590.361415,56.000000,0.000000,4172.948730,4201.282227,4186.410156,4192.179688,4189.487305,4184.230957,4183.333496,4183.077148,4198.077148,4311.538574,4233.333496,4195.000000,4169.871582,4188.205078,0.000000,4.000000,,,,0.000000,4.000000,4.000000,4.000000,4.000000,4.000000,4.000000,4.000000,4.000000,4.000000,4.000000,4.000000,4.000000,4.000000,4.000000,100.000000,3.106411,0.572681,0.568121,0.968962,0.592069,5.144232,1.416125,0.625748,1.161721,0.666190,3.036701,0.235232,0.519967,1.118401,1.094003,3.701205,0.666443,0.685967,1.893038,1.466943,1.302626,0.281438,0.259111,0.230722,0.058059,1.774210,0.469623,0.492203,0.433475,0.446267,5.859846,0.945584,0.965742,0.837501,0.763078,3.306178,0.920029,0.691925,0.642790,0.566319,0.401536,0.169538,0.088002,0.093686,0.121326,12.571468,2.973917,1.492543,1.466775,1.274328,2.624223,0.553423,0.419328,0.437233,0.399961,1.017146,0.356557,0.390259,0.317172,0.301617,0.637946,1.111805,0.617625,0.461880,0.477177,0.717227,0.708160,0.650954,0.464051,0.459732
1605176590.369396,57.000000,0.000000,4187.820313,4210.256348,4195.641113,4213.077148,4183.589844,4192.948730,4198.461426,4189.230957,4199.743652,4317.820313,4235.512695,4198.589844,4175.256348,4190.769043,0.000000,4.000000,,,,0.000000,4.000000,4.000000,4.000000,4.000000,4.000000,4.000000,4.000000,4.000000,4.000000,4.000000,4.000000,4.000000,4.000000,4.000000,100.000000,,,,,,,,,,,,,,,,,,,,,,,,,,,,,,,,,,,,,,,,,,,,,,,,,,,,,,,,,,,,,,,,,,,,,,
1605176590.377277,58.000000,0.000000,4198.846191,4219.487305,4203.846191,4223.077148,4184.743652,4195.256348,4212.820313,4199.871582,4201.025879,4339.743652,4250.641113,4208.333496,4185.641113,4203.205078,0.000000,4.000000,,,,0.000000,4.000000,4.000000,4.000000,4.000000,4.000000,4.000000,4.000000,4.000000,4.000000,4.000000,4.000000,4.000000,4.000000,4.000000,100.000000,,,,,,,,,,,,,,,,,,,,,,,,,,,,,,,,,,,,,,,,,,,,,,,,,,,,,,,,,,,,,,,,,,,,,,
1605176590.385258,59.000000,0.000000,4179.871582,4198.461426,4191.794922,4198.205078,4192.563965,4185.512695,4203.846191,4190.128418,4198.333496,4327.948730,4244.102539,4199.230957,4173.589844,4193.717773,0.000000,4.000000,,,,0.000000,4.000000,4.000000,4.000000,4.000000,4.000000,4.000000,4.000000,4.000000,4.000000,4.000000,4.000000,4.000000,4.000000,4.000000,100.000000,,,,,,,,,,,,,,,,,,,,,,,,,,,,,,,,,,,,,,,,,,,,,,,,,,,,,,,,,,,,,,,,,,,,,,
1605176590.393240,60.000000,0.000000,4164.871582,4180.769043,4176.153809,4181.025879,4191.922852,4184.230957,4198.717773,4179.358887,4197.563965,4296.922852,4228.333496,4187.436035,4159.743652,4174.615234,0.000000,4.000000,,,,0.000000,4.000000,4.000000,4.000000,4.000000,4.000000,4.000000,4.000000,4.000000,4.000000,4.000000,4.000000,4.000000,4.000000,4.000000,100.000000,,,,,,,,,,,,,,,,,,,,,,,,,,,,,,,,,,,,,,,,,,,,,,,,,,,,,,,,,,,,,,,,,,,,,,
1605176590.401121,61.000000,0.000000,4185.256348,4198.205078,4183.077148,4197.948730,4188.589844,4192.307617,4207.436035,4193.461426,4200.897461,4302.179688,4235.641113,4195.769043,4170.128418,4182.948730,0.000000,4.000000,,,,0.000000,4.000000,4.000000,4.000000,4.000000,4.000000,4.000000,4.000000,4.000000,4.000000,4.000000,4.000000,4.000000,4.000000,4.000000,100.000000,,,,,,,,,,,,,,,,,,,,,,,,,,,,,,,,,,,,,,,,,,,,,,,,,,,,,,,,,,,,,,,,,,,,,,
1605176590.409003,62.000000,0.000000,4195.384766,4215.000000,4200.256348,4216.282227,4189.743652,4196.153809,4213.846191,4209.230957,4202.820313,4327.692383,4248.846191,4201.794922,4183.717773,4195.256348,0.000000,4.000000,,,,0.000000,4.000000,4.000000,4.000000,4.000000,4.000000,4.000000,4.000000,4.000000,4.000000,4.000000,4.000000,4.000000,4.000000,4.000000,100.000000,,,,,,,,,,,,,,,,,,,,,,,,,,,,,,,,,,,,,,,,,,,,,,,,,,,,,,,,,,,,,,,,,,,,,,
1605176590.416984,63.000000,0.000000,4176.282227,4201.538574,4195.256348,4202.307617,4187.436035,4189.743652,4203.589844,4197.820313,4198.205078,4318.974121,4239.487305,4188.589844,4172.692383,4182.179688,0.000000,4.000000,,,,0.000000,4.000000,4.000000,4.000000,4.000000,4.000000,4.000000,4.000000,4.000000,4.000000,4.000000,4.000000,4.000000,4.000000,4.000000,100.000000,,,,,,,,,,,,,,,,,,,,,,,,,,,,,,,,,,,,,,,,,,,,,,,,,,,,,,,,,,,,,,,,,,,,,,
1605176590.424865,64.000000,0.000000,4169.615234,4182.692383,4172.179688,4177.820313,4184.743652,4179.615234,4185.897461,4180.641113,4189.743652,4288.461426,4223.077148,4183.333496,4157.563965,4175.128418,3764.000000,4.000000,,,,0.000000,4.000000,4.000000,4.000000,4.000000,4.000000,4.000000,4.000000,4.000000,4.000000,4.000000,4.000000,4.000000,4.000000,4.000000,100.000000,,,,,,,,,,,,,,,,,,,,,,,,,,,,,,,,,,,,,,,,,,,,,,,,,,,,,,,,,,,,,,,,,,,,,,
1605176590.432846,65.000000,0.000000,4177.307617,4185.128418,4161.410156,4176.282227,4186.538574,4180.000000,4183.589844,4181.922852,4190.128418,4279.358887,4222.051270,4190.128418,4161.025879,4182.436035,4060.000000,4.000000,,,,0.000000,4.000000,4.000000,4.000000,4.000000,4.000000,4.000000,4.000000,4.000000,4.000000,4.000000,4.000000,4.000000,4.000000,4.000000,100.000000,,,,,,,,,,,,,,,,,,,,,,,,,,,,,,,,,,,,,,,,,,,,,,,,,,,,,,,,,,,,,,,,,,,,,,
1605176590.440727,66.000000,0.000000,4179.102539,4193.846191,4168.205078,4189.743652,4185.641113,4186.794922,4195.128418,4189.102539,4196.025879,4286.410156,4229.743652,4188.589844,4167.563965,4180.769043,3777.000000,4.000000,,,,0.000000,4.000000,4.000000,4.000000,4.000000,4.000000,4.000000,4.000000,4.000000,4.000000,4.000000,4.000000,4.000000,4.000000,4.000000,100.000000,,,,,,,,,,,,,,,,,,,,,,,,,,,,,,,,,,,,,,,,,,,,,,,,,,,,,,,,,,,,,,,,,,,,,,
1605176590.448708,67.000000,0.000000,4177.179688,4191.794922,4179.358887,4195.128418,4183.205078,4189.743652,4201.794922,4192.051270,4199.102539,4290.128418,4233.846191,4190.384766,4170.384766,4181.410156,4414.000000,4.000000,,,,0.000000,4.000000,4.000000,4.000000,4.000000,4.000000,4.000000,4.000000,4.000000,4.000000,4.000000,4.000000,4.000000,4.000000,4.000000,100.000000,,,,,,,,,,,,,,,,,,,,,,,,,,,,,,,,,,,,,,,,,,,,,,,,,,,,,,,,,,,,,,,,,,,,,,
1605176590.456589,68.000000,0.000000,4172.563965,4188.846191,4181.794922,4194.102539,4183.846191,4187.436035,4193.077148,4188.461426,4193.205078,4284.487305,4227.820313,4198.461426,4172.307617,4188.205078,3476.000000,4.000000,,,,0.000000,4.000000,4.000000,4.000000,4.000000,4.000000,4.000000,4.000000,4.000000,4.000000,4.000000,4.000000,4.000000,4.000000,4.000000,100.000000,,,,,,,,,,,,,,,,,,,,,,,,,,,,,,,,,,,,,,,,,,,,,,,,,,,,,,,,,,,,,,,,,,,,,,
1605176590.464570,69.000000,0.000000,4171.538574,4193.846191,4179.102539,4194.871582,4182.563965,4182.820313,4184.487305,4182.948730,4190.641113,4279.358887,4224.487305,4197.436035,4171.922852,4188.461426,3431.000000,4.000000,,,,0.000000,4.000000,4.000000,4.000000,4.000000,4.000000,4.000000,4.000000,4.000000,4.000000,4.000000,4.000000,4.000000,4.000000,4.000000,100.000000,,,,,,,,,,,,,,,,,,,,,,,,,,,,,,,,,,,,,,,,,,,,,,,,,,,,,,,,,,,,,,,,,,,,,,
1605176590.472451,70.000000,0.000000,4176.025879,4193.589844,4180.256348,4190.000000,4183.077148,4176.794922,4181.282227,4177.820313,4192.563965,4275.128418,4227.436035,4194.230957,4168.205078,4186.410156,4055.000000,4.000000,,,,0.000000,4.000000,4.000000,4.000000,4.000000,4.000000,4.000000,4.000000,4.000000,4.000000,4.000000,4.000000,4.000000,4.000000,4.000000,100.000000,,,,,,,,,,,,,,,,,,,,,,,,,,,,,,,,,,,,,,,,,,,,,,,,,,,,,,,,,,,,,,,,,,,,,,
1605176590.480232,71.000000,0.000000,4182.051270,4196.410156,4190.000000,4196.025879,4186.025879,4182.436035,4184.871582,4182.179688,4194.743652,4283.846191,4228.717773,4198.333496,4175.384766,4190.897461,3577.000000,4.000000,,,,0.000000,4.000000,4.000000,4.000000,4.000000,4.000000,4.000000,4.000000,4.000000,4.000000,4.000000,4.000000,4.000000,4.000000,4.000000,100.000000,,,,,,,,,,,,,,,,,,,,,,,,,,,,,,,,,,,,,,,,,,,,,,,,,,,,,,,,,,,,,,,,,,,,,,
