title:club, start timestamp:1605178928.609503, stop timestamp:1605178989.486660, headset type:EPOCPLUS, headset serial:3B9AEC95, headset firmware:625, channels:108, sampling rate:eeg_128;pow_8, samples:7729      , version:2.0
Timestamp,EEG.Counter,EEG.Interpolated,EEG.AF3,EEG.F7,EEG.F3,EEG.FC5,EEG.T7,EEG.P7,EEG.O1,EEG.O2,EEG.P8,EEG.T8,EEG.FC6,EEG.F4,EEG.F8,EEG.AF4,EEG.RawCq,EEG.Battery,MarkerIndex,MarkerType,MarkerValueInt,EEG.MarkerHardware,CQ.AF3,CQ.F7,CQ.F3,CQ.FC5,CQ.T7,CQ.P7,CQ.O1,CQ.O2,CQ.P8,CQ.T8,CQ.FC6,CQ.F4,CQ.F8,CQ.AF4,CQ.Overall,POW.AF3.Theta,POW.AF3.Alpha,POW.AF3.BetaL,POW.AF3.BetaH,POW.AF3.Gamma,POW.F7.Theta,POW.F7.Alpha,POW.F7.BetaL,POW.F7.BetaH,POW.F7.Gamma,POW.F3.Theta,POW.F3.Alpha,POW.F3.BetaL,POW.F3.BetaH,POW.F3.Gamma,POW.FC5.Theta,POW.FC5.Alpha,POW.FC5.BetaL,POW.FC5.BetaH,POW.FC5.Gamma,POW.T7.Theta,POW.T7.Alpha,POW.T7.BetaL,POW.T7.BetaH,POW.T7.Gamma,POW.P7.Theta,POW.P7.Alpha,POW.P7.BetaL,POW.P7.BetaH,POW.P7.Gamma,POW.O1.Theta,POW.O1.Alpha,POW.O1.BetaL,POW.O1.BetaH,POW.O1.Gamma,POW.O2.Theta,POW.O2.Alpha,POW.O2.BetaL,POW.O2.BetaH,POW.O2.Gamma,POW.P8.Theta,POW.P8.Alpha,POW.P8.BetaL,POW.P8.BetaH,POW.P8.Gamma,POW.T8.Theta,POW.T8.Alpha,POW.T8.BetaL,POW.T8.BetaH,POW.T8.Gamma,POW.FC6.Theta,POW.FC6.Alpha,POW.FC6.BetaL,POW.FC6.BetaH,POW.FC6.Gamma,POW.F4.Theta,POW.F4.Alpha,POW.F4.BetaL,POW.F4.BetaH,POW.F4.Gamma,POW.F8.Theta,POW.F8.Alpha,POW.F8.BetaL,POW.F8.BetaH,POW.F8.Gamma,POW.AF4.Theta,POW.AF4.Alpha,POW.AF4.BetaL,POW.AF4.BetaH,POW.AF4.Gamma
1605178928.609503,54.000000,0.000000,4240.512695,4456.666504,4075.512939,4093.718018,3940.128174,4108.077148,4239.615234,4046.410156,4214.230957,4253.333496,3624.871826,3933.718018,3857.564209,3897.307617,0.000000,3.000000,,,,0.000000,4.000000,4.000000,4.000000,4.000000,4.000000,4.000000,4.000000,2.000000,4.000000,4.000000,4.000000,4.000000,4.000000,4.000000,83.333336,,,,,,,,,,,,,,,,,,,,,,,,,,,,,,,,,,,,,,,,,,,,,,,,,,,,,,,,,,,,,,,,,,,,,,
1605178928.617485,55.000000,0.000000,4233.589844,4458.333496,4070.512939,4084.743652,3930.512939,4089.871826,4255.641113,4044.871826,4229.743652,4265.000000,3618.589844,3928.718018,3860.641113,3893.076904,0.000000,3.000000,,,,0.000000,4.000000,4.000000,4.000000,4.000000,4.000000,4.000000,4.000000,2.000000,4.000000,4.000000,4.000000,4.000000,4.000000,4.000000,83.333336,,,,,,,,,,,,,,,,,,,,,,,,,,,,,,,,,,,,,,,,,,,,,,,,,,,,,,,,,,,,,,,,,,,,,,
1605178928.625367,56.000000,0.000000,4240.641113,4487.948730,4076.025635,4097.179688,3942.435791,4101.410156,4268.589844,4054.615479,4254.230957,4289.487305,3658.974365,3938.718018,3875.128174,3902.564209,0.000000,3.000000,,,,0.000000,4.000000,4.000000,4.000000,4.000000,4.000000,4.000000,4.000000,2.000000,4.000000,4.000000,4.000000,4.000000,4.000000,4.000000,83.333336,,,,,,,,,,,,,,,,,,,,,,,,,,,,,,,,,,,,,,,,,,,,,,,,,,,,,,,,,,,,,,,,,,,,,,
1605178928.633349,57.000000,0.000000,4254.230957,4509.487305,4076.538574,4106.538574,3952.051270,4108.846191,4265.384766,4060.769287,4238.461426,4310.641113,3700.641113,3944.487061,3888.846191,3909.487061,0.000000,3.000000,,,,0.000000,4.000000,4.000000,4.000000,4.000000,4.000000,4.000000,4.000000,2.000000,4.000000,4.000000,4.000000,4.000000,4.000000,4.000000,83.333336,,,,,,,,,,,,,,,,,,,,,,,,,,,,,,,,,,,,,,,,,,,,,,,,,,,,,,,,,,,,,,,,,,,,,,
1605178928.641231,58.000000,0.000000,4268.974121,4518.589844,4068.461426,4104.358887,3951.794922,4088.974365,4249.487305,4057.820557,4218.333496,4316.538574,3713.718018,3939.615479,3896.666748,3906.281982,0.000000,3.000000,,,,0.000000,4.000000,4.000000,4.000000,4.000000,4.000000,4.000000,4.000000,2.000000,4.000000,4.000000,4.000000,4.000000,4.000000,4.000000,83.333336,,,,,,,,,,,,,,,,,,,,,,,,,,,,,,,,,,,,,,,,,,,,,,,,,,,,,,,,,,,,,,,,,,,,,,
1605178928.649212,59.000000,0.000000,4289.487305,4547.436035,4075.641113,4126.282227,3933.333252,4103.846191,4259.871582,4068.333252,4268.974121,4327.563965,3766.794922,3953.461426,3920.512939,3922.948730,0.000000,3.000000,,,,0.000000,4.000000,4.000000,4.000000,4.000000,4.000000,4.000000,4.000000,2.000000,4.000000,4.000000,4.000000,4.000000,4.000000,4.000000,83.333336,,,,,,,,,,,,,,,,,,,,,,,,,,,,,,,,,,,,,,,,,,,,,,,,,,,,,,,,,,,,,,,,,,,,,,
1605178928.657094,60.000000,0.000000,4319.102539,4580.641113,4093.205078,4160.256348,3953.461426,4115.641113,4274.102539,4085.897461,4299.487305,4370.128418,3862.435791,3980.769287,3957.179443,3953.589844,0.000000,3.000000,,,,0.000000,4.000000,4.000000,4.000000,4.000000,4.000000,4.000000,4.000000,2.000000,4.000000,4.000000,4.000000,4.000000,4.000000,4.000000,83.333336,,,,,,,,,,,,,,,,,,,,,,,,,,,,,,,,,,,,,,,,,,,,,,,,,,,,,,,,,,,,,,,,,,,,,,
1605178928.664876,61.000000,0.000000,4331.538574,4583.333496,4092.820557,4156.922852,4010.897461,4069.743652,4246.153809,4086.666748,4223.333496,4392.436035,3884.487061,3978.205078,3963.589844,3951.666748,0.000000,3.000000,,,,0.000000,4.000000,4.000000,4.000000,4.000000,4.000000,4.000000,4.000000,2.000000,4.000000,4.000000,4.000000,4.000000,4.000000,4.000000,83.333336,,,,,,,,,,,,,,,,,,,,,,,,,,,,,,,,,,,,,,,,,,,,,,,,,,,,,,,,,,,,,,,,,,,,,,
1605178928.672758,62.000000,0.000000,4343.846191,4597.307617,4094.615479,4157.692383,4009.230713,4093.461426,4250.128418,4089.358887,4236.282227,4368.077148,3894.871826,3986.666748,3968.205078,3962.179443,0.000000,3.000000,,,,0.000000,4.000000,4.000000,4.000000,4.000000,4.000000,4.000000,4.000000,2.000000,4.000000,4.000000,4.000000,4.000000,4.000000,4.000000,83.333336,,,,,,,,,,,,,,,,,,,,,,,,,,,,,,,,,,,,,,,,,,,,,,,,,,,,,,,,,,,,,,,,,,,,,,
1605178928.680540,63.000000,0.000000,4355.128418,4625.384766,4111.282227,4179.102539,3968.846191,4169.487305,4290.000000,4106.666504,4334.102539,4372.051270,3974.871826,4016.794922,3997.820557,3994.743652,0.000000,3.000000,,,,0.000000,4.000000,4.000000,4.000000,4.000000,4.000000,4.000000,4.000000,2.000000,4.000000,4.000000,4.000000,4.000000,4.000000,4.000000,83.333336,,,,,,,,,,,,,,,,,,,,,,,,,,,,,,,,,,,,,,,,,,,,,,,,,,,,,,,,,,,,,,,,,,,,,,
1605178928.688522,64.000000,0.000000,4324.230957,4611.922852,4097.563965,4161.538574,3988.718018,4104.487305,4248.333496,4101.666504,4256.794922,4386.282227,3973.589844,3993.718018,3994.230713,3971.794922,1799.000000,3.000000,,,,0.000000,4.000000,4.000000,4.000000,4.000000,4.000000,4.000000,4.000000,2.000000,4.000000,4.000000,4.000000,4.000000,4.000000,4.000000,83.333336,,,,,,,,,,,,,,,,,,,,,,,,,,,,,,,,,,,,,,,,,,,,,,,,,,,,,,,,,,,,,,,,,,,,,,
1605178928.696404,65.000000,0.000000,4267.307617,4571.025879,4061.666748,4111.410156,3984.358887,4012.564209,4185.769043,4073.718018,4120.769043,4304.615234,3824.743652,3930.641113,3945.000000,3909.743652,3012.000000,3.000000,,,,0.000000,4.000000,4.000000,4.000000,4.000000,4.000000,4.000000,4.000000,2.000000,4.000000,4.000000,4.000000,4.000000,4.000000,4.000000,83.333336,,,,,,,,,,,,,,,,,,,,,,,,,,,,,,,,,,,,,,,,,,,,,,,,,,,,,,,,,,,,,,,,,,,,,,
1605178928.704386,66.000000,0.000000,4265.512695,4587.179688,4064.487061,4118.717773,3940.641113,4090.512939,4233.077148,4072.820557,4206.666504,4241.153809,3774.102539,3930.384521,3945.000000,3912.948730,2989.000000,3.000000,,,,0.000000,4.000000,4.000000,4.000000,4.000000,4.000000,4.000000,4.000000,2.000000,4.000000,4.000000,4.000000,4.000000,4.000000,4.000000,83.333336,106.958817,3.517988,2.362528,1.543349,2.861570,24.590080,6.442677,2.261366,1.172853,2.283625,8.832208,1.737396,0.827219,0.286218,0.893633,25.905317,4.916284,1.797107,0.842323,1.714761,225.841476,40.164234,7.344118,2.937153,1.551743,11.941680,2.074729,2.311247,2.995290,9.346116,14.200763,2.453641,1.598993,1.577389,4.503494,15.745321,2.872221,0.962841,0.246875,0.668748,47.674885,6.920533,4.067242,4.475052,14.038931,80.128784,17.726089,10.351421,3.931110,8.428731,573.518616,68.048393,24.728563,8.621315,18.642565,22.916763,3.408949,2.451518,0.889520,2.046482,35.894657,6.245491,2.067006,1.381219,2.579996,24.200695,3.697505,2.697721,1.006251,2.440984
1605178928.712268,67.000000,0.000000,4288.077148,4615.384766,4079.871826,4144.871582,3968.846191,4138.333496,4272.179688,4089.743652,4314.358887,4292.948730,3860.641113,3951.794922,3973.974365,3935.641113,3157.000000,3.000000,,,,0.000000,4.000000,4.000000,4.000000,4.000000,4.000000,4.000000,4.000000,2.000000,4.000000,4.000000,4.000000,4.000000,4.000000,4.000000,83.333336,,,,,,,,,,,,,,,,,,,,,,,,,,,,,,,,,,,,,,,,,,,,,,,,,,,,,,,,,,,,,,,,,,,,,,
1605178928.720250,68.000000,0.000000,4246.666504,4584.358887,4055.769287,4106.538574,3999.487061,4051.538574,4219.487305,4077.820557,4209.871582,4320.256348,3843.718018,3916.923096,3955.128174,3900.256348,3369.000000,3.000000,,,,0.000000,4.000000,4.000000,4.000000,4.000000,4.000000,4.000000,4.000000,2.000000,4.000000,4.000000,4.000000,4.000000,4.000000,4.000000,83.333336,,,,,,,,,,,,,,,,,,,,,,,,,,,,,,,,,,,,,,,,,,,,,,,,,,,,,,,,,,,,,,,,,,,,,,
1605178928.728133,69.000000,0.000000,4219.102539,4574.743652,4045.769287,4079.230713,3948.974365,4056.281982,4210.000000,4063.205078,4147.307617,4265.128418,3771.923096,3895.769287,3944.615479,3882.435791,2122.000000,3.000000,,,,0.000000,4.000000,4.000000,4.000000,4.000000,4.000000,4.000000,4.000000,2.000000,4.000000,4.000000,4.000000,4.000000,4.000000,4.000000,83.333336,,,,,,,,,,,,,,,,,,,,,,,,,,,,,,,,,,,,,,,,,,,,,,,,,,,,,,,,,,,,,,,,,,,,,,
1605178928.736115,70.000000,0.000000,4261.538574,4617.948730,4066.281982,4110.384766,3940.128174,4125.256348,4250.769043,4076.281982,4247.179688,4263.077148,3820.000000,3919.615479,3983.205078,3909.743652,2141.000000,3.000000,,,,0.000000,4.000000,4.000000,4.000000,4.000000,4.000000,4.000000,4.000000,2.000000,4.000000,4.000000,4.000000,4.000000,4.000000,4.000000,83.333336,,,,,,,,,,,,,,,,,,,,,,,,,,,,,,,,,,,,,,,,,,,,,,,,,,,,,,,,,,,,,,,,,,,,,,
1605178928.743997,71.000000,0.000000,4262.820313,4629.230957,4067.179443,4119.615234,4001.410156,4088.974365,4233.333496,4088.589844,4271.025879,4314.230957,3887.564209,3924.230713,4008.333252,3913.589844,1013.000000,3.000000,,,,0.000000,4.000000,4.000000,4.000000,4.000000,4.000000,4.000000,4.000000,2.000000,4.000000,4.000000,4.000000,4.000000,4.000000,4.000000,83.333336,,,,,,,,,,,,,,,,,,,,,,,,,,,,,,,,,,,,,,,,,,,,,,,,,,,,,,,,,,,,,,,,,,,,,,
1605178928.751979,72.000000,0.000000,4213.461426,4600.897461,4051.410156,4094.487061,4008.076904,4044.358887,4199.871582,4081.410156,4181.538574,4300.384766,3846.666748,3897.435791,3995.641113,3889.487061,2989.000000,3.000000,,,,0.000000,4.000000,4.000000,4.000000,4.000000,4.000000,4.000000,4.000000,2.000000,4.000000,4.000000,4.000000,4.000000,4.000000,4.000000,83.333336,,,,,,,,,,,,,,,,,,,,,,,,,,,,,,,,,,,,,,,,,,,,,,,,,,,,,,,,,,,,,,,,,,,,,,
1605178928.759861,73.000000,0.000000,4190.512695,4586.410156,4041.281982,4083.333252,3965.641113,4062.692383,4202.692383,4075.769287,4167.948730,4242.179688,3776.794922,3874.487061,3981.410156,3873.718018,3914.000000,3.000000,,,,0.000000,4.000000,4.000000,4.000000,4.000000,4.000000,4.000000,4.000000,2.000000,4.000000,4.000000,4.000000,4.000000,4.000000,4.000000,83.333336,,,,,,,,,,,,,,,,,,,,,,,,,,,,,,,,,,,,,,,,,,,,,,,,,,,,,,,,,,,,,,,,,,,,,,
1605178928.767843,74.000000,0.000000,4184.230957,4581.410156,4034.871826,4083.589844,3945.769287,4064.615479,4203.461426,4075.512939,4223.974121,4231.794922,3756.923096,3867.692383,3986.281982,3869.743652,2668.000000,3.000000,,,,0.000000,4.000000,4.000000,4.000000,4.000000,4.000000,4.000000,4.000000,2.000000,4.000000,4.000000,4.000000,4.000000,4.000000,4.000000,83.333336,,,,,,,,,,,,,,,,,,,,,,,,,,,,,,,,,,,,,,,,,,,,,,,,,,,,,,,,,,,,,,,,,,,,,,
1605178928.775725,75.000000,0.000000,4175.128418,4573.205078,4033.718018,4086.538574,3949.743652,4046.923096,4188.717773,4076.923096,4217.179688,4270.641113,3773.846191,3871.666748,4009.102539,3873.461426,2770.000000,3.000000,,,,0.000000,4.000000,4.000000,4.000000,4.000000,4.000000,4.000000,4.000000,2.000000,4.000000,4.000000,4.000000,4.000000,4.000000,4.000000,83.333336,,,,,,,,,,,,,,,,,,,,,,,,,,,,,,,,,,,,,,,,,,,,,,,,,,,,,,,,,,,,,,,,,,,,,,
1605178928.783707,76.000000,0.000000,4167.692383,4561.025879,4034.358887,4080.384521,3945.128174,4036.666748,4171.025879,4077.948730,4164.230957,4260.769043,3765.384521,3863.205078,4016.153809,3871.025635,5770.000000,3.000000,,,,0.000000,4.000000,4.000000,4.000000,4.000000,4.000000,4.000000,4.000000,2.000000,4.000000,4.000000,4.000000,4.000000,4.000000,4.000000,83.333336,,,,,,,,,,,,,,,,,,,,,,,,,,,,,,,,,,,,,,,,,,,,,,,,,,,,,,,,,,,,,,,,,,,,,,
1605178928.791589,77.000000,0.000000,4160.128418,4563.205078,4034.487061,4063.846191,3920.641113,4056.281982,4182.948730,4078.846191,4195.256348,4222.179688,3747.179443,3853.974365,4010.769287,3868.076904,2661.000000,3.000000,,,,0.000000,4.000000,4.000000,4.000000,4.000000,4.000000,4.000000,4.000000,2.000000,4.000000,4.000000,4.000000,4.000000,4.000000,4.000000,83.333336,,,,,,,,,,,,,,,,,,,,,,,,,,,,,,,,,,,,,,,,,,,,,,,,,,,,,,,,,,,,,,,,,,,,,,
1605178928.799371,78.000000,0.000000,4144.743652,4573.205078,4033.718018,4058.461426,3889.743652,4082.307617,4209.743652,4078.333252,4268.589844,4228.589844,3752.820557,3858.846191,4018.974365,3873.974365,2668.000000,3.000000,,,,0.000000,4.000000,4.000000,4.000000,4.000000,4.000000,4.000000,4.000000,2.000000,4.000000,4.000000,4.000000,4.000000,4.000000,4.000000,83.333336,,,,,,,,,,,,,,,,,,,,,,,,,,,,,,,,,,,,,,,,,,,,,,,,,,,,,,,,,,,,,,,,,,,,,,
1605178928.807252,79.000000,0.000000,4135.769043,4567.051270,4023.718018,4070.128174,3910.641113,4036.666748,4182.948730,4073.333252,4211.538574,4276.410156,3755.897461,3854.615479,4033.718018,3874.487061,2770.000000,3.000000,,,,0.000000,4.000000,4.000000,4.000000,4.000000,4.000000,4.000000,4.000000,2.000000,4.000000,4.000000,4.000000,4.000000,4.000000,4.000000,83.333336,,,,,,,,,,,,,,,,,,,,,,,,,,,,,,,,,,,,,,,,,,,,,,,,,,,,,,,,,,,,,,,,,,,,,,
1605178928.815034,80.000000,0.000000,4151.025879,4560.384766,4019.743652,4067.564209,3943.718018,4001.025635,4155.128418,4070.641113,4114.871582,4283.205078,3741.666748,3845.000000,4037.564209,3872.179443,5770.000000,3.000000,,,,0.000000,4.000000,4.000000,4.000000,4.000000,4.000000,4.000000,4.000000,2.000000,4.000000,4.000000,4.000000,4.000000,4.000000,4.000000,83.333336,,,,,,,,,,,,,,,,,,,,,,,,,,,,,,,,,,,,,,,,,,,,,,,,,,,,,,,,,,,,,,,,,,,,,,
1605178928.822916,81.000000,0.000000,4195.897461,4607.563965,4048.718018,4094.871826,3938.205078,4090.641113,4220.128418,4087.179443,4221.282227,4292.820313,3829.230713,3885.256348,4068.589844,3917.307617,2661.000000,3.000000,,,,0.000000,4.000000,4.000000,4.000000,4.000000,4.000000,4.000000,4.000000,2.000000,4.000000,4.000000,4.000000,4.000000,4.000000,4.000000,83.333336,,,,,,,,,,,,,,,,,,,,,,,,,,,,,,,,,,,,,,,,,,,,,,,,,,,,,,,,,,,,,,,,,,,,,,
1605178928.830698,82.000000,0.000000,4199.230957,4641.794922,4066.538574,4131.282227,3943.974365,4122.307617,4249.102539,4104.230957,4335.256348,4329.743652,3951.923096,3914.230713,4096.794922,3950.769287,2668.000000,3.000000,,,,0.000000,4.000000,4.000000,4.000000,4.000000,4.000000,4.000000,4.000000,2.000000,4.000000,4.000000,4.000000,4.000000,4.000000,4.000000,83.333336,90.678711,3.774075,2.280366,1.763744,3.316338,21.871122,9.415851,2.819510,1.572555,2.343457,6.794459,1.975853,0.952783,0.345343,0.930273,18.598879,5.852551,1.951926,0.963436,1.730943,260.775513,55.154613,10.942899,3.611170,1.845347,9.459865,2.359201,2.877352,3.184635,9.857203,10.053206,3.472933,2.122418,1.763832,4.619916,13.466420,3.428558,1.201682,0.303417,0.666440,36.185795,8.696638,4.005144,5.743942,13.532736,61.633862,24.129503,12.833973,5.223605,9.886716,447.724243,81.148178,30.580366,10.110919,18.454046,17.848301,3.822578,2.955440,1.052166,2.133144,17.966482,5.986728,2.390816,1.654745,2.718621,18.818871,4.086300,3.144233,1.187142,2.542713
1605178928.838580,83.000000,0.000000,4156.025879,4619.102539,4046.153809,4117.179688,3991.923096,4031.666748,4180.641113,4095.641113,4241.922852,4329.615234,3933.974365,3884.487061,4083.846191,3926.538574,2770.000000,3.000000,,,,0.000000,4.000000,4.000000,4.000000,4.000000,4.000000,4.000000,4.000000,2.000000,4.000000,4.000000,4.000000,4.000000,4.000000,4.000000,83.333336,,,,,,,,,,,,,,,,,,,,,,,,,,,,,,,,,,,,,,,,,,,,,,,,,,,,,,,,,,,,,,,,,,,,,,
1605178928.846362,84.000000,0.000000,4156.538574,4616.153809,4042.564209,4104.615234,4020.000000,4032.948730,4170.897461,4091.538574,4182.563965,4317.307617,3895.769287,3877.435791,4088.461426,3922.307617,5770.000000,3.000000,,,,0.000000,4.000000,4.000000,4.000000,4.000000,4.000000,4.000000,4.000000,2.000000,4.000000,4.000000,4.000000,4.000000,4.000000,4.000000,83.333336,,,,,,,,,,,,,,,,,,,,,,,,,,,,,,,,,,,,,,,,,,,,,,,,,,,,,,,,,,,,,,,,,,,,,,
1605178928.854244,85.000000,0.000000,4197.179688,4658.589844,4066.410156,4136.666504,4009.102539,4126.410156,4239.102539,4112.179688,4301.922852,4348.717773,3990.384521,3916.410156,4133.461426,3963.718018,2661.000000,3.000000,,,,0.000000,4.000000,4.000000,4.000000,4.000000,4.000000,4.000000,4.000000,2.000000,4.000000,4.000000,4.000000,4.000000,4.000000,4.000000,83.333336,,,,,,,,,,,,,,,,,,,,,,,,,,,,,,,,,,,,,,,,,,,,,,,,,,,,,,,,,,,,,,,,,,,,,,
1605178928.862026,86.000000,0.000000,4200.128418,4666.282227,4069.871826,4148.077148,4007.435791,4127.692383,4247.051270,4121.794922,4358.205078,4372.179688,4068.718018,3919.230713,4140.256348,3970.128174,2668.000000,3.000000,,,,0.000000,4.000000,4.000000,4.000000,4.000000,4.000000,4.000000,4.000000,2.000000,4.000000,4.000000,4.000000,4.000000,4.000000,4.000000,83.333336,,,,,,,,,,,,,,,,,,,,,,,,,,,,,,,,,,,,,,,,,,,,,,,,,,,,,,,,,,,,,,,,,,,,,,
1605178928.869908,87.000000,0.000000,4158.717773,4613.205078,4040.384521,4106.922852,4018.333252,4046.153809,4182.436035,4100.384766,4250.769043,4321.282227,3974.358887,3872.564209,4089.871826,3923.718018,2770.000000,3.000000,,,,0.000000,4.000000,4.000000,4.000000,4.000000,4.000000,4.000000,4.000000,2.000000,4.000000,4.000000,4.000000,4.000000,4.000000,4.000000,83.333336,,,,,,,,,,,,,,,,,,,,,,,,,,,,,,,,,,,,,,,,,,,,,,,,,,,,,,,,,,,,,,,,,,,,,,
1605178928.877690,88.000000,0.000000,4117.820313,4564.358887,4018.589844,4071.153809,4006.538574,4008.589844,4147.563965,4078.076904,4154.871582,4263.589844,3848.846191,3840.641113,4059.871826,3894.871826,5770.000000,3.000000,,,,0.000000,4.000000,4.000000,4.000000,4.000000,4.000000,4.000000,4.000000,2.000000,4.000000,4.000000,4.000000,4.000000,4.000000,4.000000,83.333336,,,,,,,,,,,,,,,,,,,,,,,,,,,,,,,,,,,,,,,,,,,,,,,,,,,,,,,,,,,,,,,,,,,,,,
1605178928.885572,89.000000,0.000000,4109.743652,4567.307617,4021.281982,4074.743652,3976.281982,4041.153809,4166.794922,4080.256348,4168.333496,4252.948730,3838.205078,3846.410156,4075.641113,3906.538574,2661.000000,3.000000,,,,0.000000,4.000000,4.000000,4.000000,4.000000,4.000000,4.000000,4.000000,2.000000,4.000000,4.000000,4.000000,4.000000,4.000000,4.000000,83.333336,,,,,,,,,,,,,,,,,,,,,,,,,,,,,,,,,,,,,,,,,,,,,,,,,,,,,,,,,,,,,,,,,,,,,,
1605178928.893354,90.000000,0.000000,4123.717773,4592.436035,4028.974365,4090.897461,3970.641113,4083.718018,4192.051270,4095.512939,4233.974121,4273.717773,3900.256348,3865.897461,4102.436035,3927.435791,2668.000000,3.000000,,,,0.000000,4.000000,4.000000,4.000000,4.000000,4.000000,4.000000,4.000000,2.000000,4.000000,4.000000,4.000000,4.000000,4.000000,4.000000,83.333336,,,,,,,,,,,,,,,,,,,,,,,,,,,,,,,,,,,,,,,,,,,,,,,,,,,,,,,,,,,,,,,,,,,,,,
1605178928.901336,91.000000,0.000000,4126.410156,4590.128418,4021.025635,4087.435791,4002.564209,4062.179443,4174.487305,4096.538574,4244.615234,4286.538574,3912.435791,3861.794922,4109.743652,3920.769287,2770.000000,3.000000,,,,0.000000,4.000000,4.000000,4.000000,4.000000,4.000000,4.000000,4.000000,2.000000,4.000000,4.000000,4.000000,4.000000,4.000000,4.000000,83.333336,,,,,,,,,,,,,,,,,,,,,,,,,,,,,,,,,,,,,,,,,,,,,,,,,,,,,,,,,,,,,,,,,,,,,,
1605178928.909218,92.000000,0.000000,4122.051270,4579.615234,4010.512939,4080.384521,4030.256348,4022.307617,4146.538574,4087.692383,4204.358887,4280.897461,3880.897461,3841.410156,4109.871582,3902.692383,5770.000000,3.000000,,,,0.000000,4.000000,4.000000,4.000000,4.000000,4.000000,4.000000,4.000000,2.000000,4.000000,4.000000,4.000000,4.000000,4.000000,4.000000,83.333336,,,,,,,,,,,,,,,,,,,,,,,,,,,,,,,,,,,,,,,,,,,,,,,,,,,,,,,,,,,,,,,,,,,,,,
1605178928.917100,93.000000,0.000000,4112.307617,4582.692383,4013.589844,4091.025635,4016.538574,4043.589844,4162.692383,4092.564209,4215.000000,4278.205078,3895.897461,3844.358887,4127.820313,3908.846191,2661.000000,3.000000,,,,0.000000,4.000000,4.000000,4.000000,4.000000,4.000000,4.000000,4.000000,2.000000,4.000000,4.000000,4.000000,4.000000,4.000000,4.000000,83.333336,,,,,,,,,,,,,,,,,,,,,,,,,,,,,,,,,,,,,,,,,,,,,,,,,,,,,,,,,,,,,,,,,,,,,,
1605178928.924882,94.000000,0.000000,4111.025879,4590.256348,4023.718018,4104.358887,4012.307617,4078.974365,4190.000000,4101.922852,4261.410156,4285.256348,3956.410156,3869.487061,4158.333496,3932.820557,2668.000000,3.000000,,,,0.000000,4.000000,4.000000,4.000000,4.000000,4.000000,4.000000,4.000000,2.000000,4.000000,4.000000,4.000000,4.000000,4.000000,4.000000,83.333336,,,,,,,,,,,,,,,,,,,,,,,,,,,,,,,,,,,,,,,,,,,,,,,,,,,,,,,,,,,,,,,,,,,,,,
1605178928.932864,95.000000,0.000000,4130.000000,4597.307617,4028.846191,4106.794922,4048.205078,4058.718018,4176.538574,4099.615234,4237.051270,4306.153809,3988.461426,3876.153809,4174.871582,3938.589844,2770.000000,3.000000,,,,0.000000,4.000000,4.000000,4.000000,4.000000,4.000000,4.000000,4.000000,2.000000,4.000000,4.000000,4.000000,4.000000,4.000000,4.000000,83.333336,,,,,,,,,,,,,,,,,,,,,,,,,,,,,,,,,,,,,,,,,,,,,,,,,,,,,,,,,,,,,,,,,,,,,,
1605178928.940746,96.000000,0.000000,4150.769043,4611.410156,4029.102539,4117.692383,4068.333252,4042.820557,4163.461426,4101.794922,4204.743652,4332.179688,3998.076904,3869.487061,4184.743652,3933.974365,5770.000000,3.000000,,,,0.000000,4.000000,4.000000,4.000000,4.000000,4.000000,4.000000,4.000000,2.000000,4.000000,4.000000,4.000000,4.000000,4.000000,4.000000,83.333336,,,,,,,,,,,,,,,,,,,,,,,,,,,,,,,,,,,,,,,,,,,,,,,,,,,,,,,,,,,,,,,,,,,,,,
1605178928.948728,97.000000,0.000000,4159.871582,4620.384766,4035.897461,4131.922852,4047.051270,4087.564209,4194.615234,4112.948730,4255.641113,4337.436035,4040.512939,3885.128174,4210.641113,3948.846191,2661.000000,3.000000,,,,0.000000,4.000000,4.000000,4.000000,4.000000,4.000000,4.000000,4.000000,2.000000,4.000000,4.000000,4.000000,4.000000,4.000000,4.000000,83.333336,,,,,,,,,,,,,,,,,,,,,,,,,,,,,,,,,,,,,,,,,,,,,,,,,,,,,,,,,,,,,,,,,,,,,,
1605178928.956610,98.000000,0.000000,4162.563965,4624.358887,4049.230713,4142.051270,4050.128174,4116.922852,4216.153809,4120.512695,4281.794922,4361.922852,4114.487305,3913.205078,4246.282227,3973.974365,2668.000000,3.000000,,,,0.000000,4.000000,4.000000,4.000000,4.000000,4.000000,4.000000,4.000000,2.000000,4.000000,4.000000,4.000000,4.000000,4.000000,4.000000,83.333336,76.321518,4.377549,2.554912,2.122505,4.092595,26.820112,12.819178,4.329711,2.087976,2.640222,5.247792,2.084791,1.193877,0.440332,1.054098,13.350764,6.482077,2.508399,1.155850,1.910956,271.336273,66.333664,14.714224,4.400882,2.249843,7.909641,2.697662,3.652261,3.775934,11.723450,8.489720,4.549201,2.766055,2.124147,5.355318,11.212797,3.768373,1.419149,0.384930,0.715815,29.455183,10.477693,4.503112,7.476311,14.843993,51.864189,29.955664,15.252389,6.947670,11.283267,341.291229,90.022308,38.306133,12.094110,20.051426,14.165977,4.123820,3.650557,1.282824,2.437986,11.614962,6.352272,3.125021,2.045943,3.098187,14.998820,4.442478,3.860586,1.423793,2.847761
1605178928.964592,99.000000,0.000000,4127.179688,4602.436035,4039.358887,4127.051270,4068.076904,4061.025635,4176.153809,4114.230957,4201.794922,4353.077148,4089.743652,3892.307617,4232.820313,3952.051270,2770.000000,3.000000,,,,0.000000,4.000000,4.000000,4.000000,4.000000,4.000000,4.000000,4.000000,2.000000,4.000000,4.000000,4.000000,4.000000,4.000000,4.000000,83.333336,,,,,,,,,,,,,,,,,,,,,,,,,,,,,,,,,,,,,,,,,,,,,,,,,,,,,,,,,,,,,,,,,,,,,,
1605178928.972473,100.000000,0.000000,4074.358887,4567.436035,4013.076904,4101.025879,4056.538574,4013.076904,4138.077148,4097.307617,4141.153809,4249.871582,3959.358887,3846.281982,4192.051270,3908.846191,5770.000000,3.000000,,,,0.000000,4.000000,4.000000,4.000000,4.000000,4.000000,4.000000,4.000000,2.000000,4.000000,4.000000,4.000000,4.000000,4.000000,4.000000,83.333336,,,,,,,,,,,,,,,,,,,,,,,,,,,,,,,,,,,,,,,,,,,,,,,,,,,,,,,,,,,,,,,,,,,,,,
1605178928.980255,101.000000,0.000000,4074.487061,4568.461426,4016.666748,4098.974121,4032.948730,4063.589844,4161.794922,4095.128174,4185.000000,4197.563965,3925.512939,3854.358887,4212.051270,3918.974365,2661.000000,3.000000,,,,0.000000,4.000000,4.000000,4.000000,4.000000,4.000000,4.000000,4.000000,2.000000,4.000000,4.000000,4.000000,4.000000,4.000000,4.000000,83.333336,,,,,,,,,,,,,,,,,,,,,,,,,,,,,,,,,,,,,,,,,,,,,,,,,,,,,,,,,,,,,,,,,,,,,,
1605178928.988137,102.000000,0.000000,4104.615234,4577.948730,4029.743652,4102.436035,4020.512939,4114.615234,4191.282227,4109.871582,4237.051270,4258.077148,4006.025635,3885.897461,4265.256348,3947.051270,2668.000000,3.000000,,,,0.000000,4.000000,4.000000,4.000000,4.000000,4.000000,4.000000,4.000000,2.000000,4.000000,4.000000,4.000000,4.000000,4.000000,4.000000,83.333336,,,,,,,,,,,,,,,,,,,,,,,,,,,,,,,,,,,,,,,,,,,,,,,,,,,,,,,,,,,,,,,,,,,,,,
1605178928.995919,103.000000,0.000000,4085.897461,4548.846191,4015.000000,4083.461426,4012.564209,4069.743652,4167.051270,4110.384766,4209.871582,4245.769043,3989.743652,3862.564209,4254.615234,3918.076904,2770.000000,3.000000,,,,0.000000,4.000000,4.000000,4.000000,4.000000,4.000000,4.000000,4.000000,2.000000,4.000000,4.000000,4.000000,4.000000,4.000000,4.000000,83.333336,,,,,,,,,,,,,,,,,,,,,,,,,,,,,,,,,,,,,,,,,,,,,,,,,,,,,,,,,,,,,,,,,,,,,,
1605178929.003801,104.000000,0.000000,4078.846191,4546.410156,4011.666748,4088.718018,4037.179443,4039.743652,4151.794922,4104.615234,4191.794922,4213.974121,3945.128174,3848.974365,4252.307617,3904.358887,5770.000000,3.000000,,,,0.000000,4.000000,4.000000,4.000000,4.000000,4.000000,4.000000,4.000000,2.000000,4.000000,4.000000,4.000000,4.000000,4.000000,4.000000,83.333336,,,,,,,,,,,,,,,,,,,,,,,,,,,,,,,,,,,,,,,,,,,,,,,,,,,,,,,,,,,,,,,,,,,,,,
1605178929.011583,105.000000,0.000000,4112.692383,4581.666504,4034.487061,4123.333496,4073.718018,4080.897461,4178.717773,4114.487305,4228.589844,4280.769043,4029.230713,3886.794922,4293.461426,3942.948730,2661.000000,3.000000,,,,0.000000,4.000000,4.000000,4.000000,4.000000,4.000000,4.000000,4.000000,2.000000,4.000000,4.000000,4.000000,4.000000,4.000000,4.000000,83.333336,,,,,,,,,,,,,,,,,,,,,,,,,,,,,,,,,,,,,,,,,,,,,,,,,,,,,,,,,,,,,,,,,,,,,,
1605178929.019565,106.000000,0.000000,4110.384766,4589.615234,4039.615479,4137.948730,4090.128174,4102.051270,4196.282227,4113.205078,4239.487305,4287.563965,4087.435791,3901.923096,4272.179688,3954.230713,2668.000000,3.000000,,,,0.000000,4.000000,4.000000,4.000000,4.000000,4.000000,4.000000,4.000000,2.000000,4.000000,4.000000,4.000000,4.000000,4.000000,4.000000,83.333336,,,,,,,,,,,,,,,,,,,,,,,,,,,,,,,,,,,,,,,,,,,,,,,,,,,,,,,,,,,,,,,,,,,,,,
1605178929.027447,107.000000,0.000000,4107.307617,4597.051270,4039.615479,4146.410156,4119.743652,4099.358887,4202.820313,4109.487305,4247.948730,4239.230957,4074.487061,3896.923096,4229.743652,3946.025635,2770.000000,3.000000,,,,0.000000,4.000000,4.000000,4.000000,4.000000,4.000000,4.000000,4.000000,2.000000,4.000000,4.000000,4.000000,4.000000,4.000000,4.000000,83.333336,,,,,,,,,,,,,,,,,,,,,,,,,,,,,,,,,,,,,,,,,,,,,,,,,,,,,,,,,,,,,,,,,,,,,,
1605178929.035429,108.000000,0.000000,4152.692383,4629.230957,4055.256348,4170.769043,4150.769043,4125.128418,4220.256348,4125.256348,4294.358887,4277.948730,4133.974121,3918.461426,4265.384766,3968.589844,5770.000000,3.000000,,,,0.000000,4.000000,4.000000,4.000000,4.000000,4.000000,4.000000,4.000000,2.000000,4.000000,4.000000,4.000000,4.000000,4.000000,4.000000,83.333336,,,,,,,,,,,,,,,,,,,,,,,,,,,,,,,,,,,,,,,,,,,,,,,,,,,,,,,,,,,,,,,,,,,,,,
1605178929.043311,109.000000,0.000000,4171.538574,4627.436035,4056.025635,4172.820313,4145.128418,4118.717773,4207.563965,4133.846191,4280.384766,4305.384766,4201.666504,3925.769287,4305.384766,3976.794922,2661.000000,3.000000,,,,0.000000,4.000000,4.000000,4.000000,4.000000,4.000000,4.000000,4.000000,2.000000,4.000000,4.000000,4.000000,4.000000,4.000000,4.000000,83.333336,,,,,,,,,,,,,,,,,,,,,,,,,,,,,,,,,,,,,,,,,,,,,,,,,,,,,,,,,,,,,,,,,,,,,,
1605178929.051293,110.000000,0.000000,4141.794922,4607.051270,4041.666748,4155.897461,4118.846191,4089.615479,4182.307617,4122.692383,4234.743652,4264.230957,4164.230957,3908.076904,4294.358887,3957.948730,2668.000000,3.000000,,,,0.000000,4.000000,4.000000,4.000000,4.000000,4.000000,4.000000,4.000000,2.000000,4.000000,4.000000,4.000000,4.000000,4.000000,4.000000,83.333336,,,,,,,,,,,,,,,,,,,,,,,,,,,,,,,,,,,,,,,,,,,,,,,,,,,,,,,,,,,,,,,,,,,,,,
1605178929.059176,111.000000,0.000000,4149.487305,4626.794922,4049.743652,4164.871582,4122.948730,4107.307617,4197.692383,4125.512695,4277.563965,4285.128418,4163.846191,3922.692383,4312.051270,3970.512939,2770.000000,3.000000,,,,0.000000,4.000000,4.000000,4.000000,4.000000,4.000000,4.000000,4.000000,2.000000,4.000000,4.000000,4.000000,4.000000,4.000000,4.000000,83.333336,,,,,,,,,,,,,,,,,,,,,,,,,,,,,,,,,,,,,,,,,,,,,,,,,,,,,,,,,,,,,,,,,,,,,,
1605178929.067158,112.000000,0.000000,4154.615234,4627.051270,4056.153809,4168.205078,4143.589844,4110.512695,4203.846191,4132.563965,4296.794922,4304.102539,4198.461426,3931.281982,4333.077148,3980.769287,5770.000000,3.000000,,,,0.000000,4.000000,4.000000,4.000000,4.000000,4.000000,4.000000,4.000000,2.000000,4.000000,4.000000,4.000000,4.000000,4.000000,4.000000,83.333336,,,,,,,,,,,,,,,,,,,,,,,,,,,,,,,,,,,,,,,,,,,,,,,,,,,,,,,,,,,,,,,,,,,,,,
1605178929.075040,113.000000,0.000000,4136.666504,4613.589844,4054.102539,4167.051270,4148.077148,4101.666504,4195.897461,4129.615234,4266.025879,4279.230957,4199.615234,3923.846191,4332.051270,3975.000000,2661.000000,3.000000,,,,0.000000,4.000000,4.000000,4.000000,4.000000,4.000000,4.000000,4.000000,2.000000,4.000000,4.000000,4.000000,4.000000,4.000000,4.000000,83.333336,,,,,,,,,,,,,,,,,,,,,,,,,,,,,,,,,,,,,,,,,,,,,,,,,,,,,,,,,,,,,,,,,,,,,,
1605178929.083022,114.000000,0.000000,4144.743652,4624.871582,4064.358887,4179.358887,4141.794922,4120.641113,4204.743652,4133.846191,4271.666504,4306.922852,4225.897461,3938.333252,4348.974121,3984.871826,2668.000000,3.000000,,,,0.000000,4.000000,4.000000,4.000000,4.000000,4.000000,4.000000,4.000000,2.000000,4.000000,4.000000,4.000000,4.000000,4.000000,4.000000,83.333336,67.127319,5.240085,3.388135,2.578006,4.988863,40.286922,15.941861,6.694987,2.596509,3.053399,5.056317,2.051394,1.543462,0.558973,1.228289,11.861850,6.718378,3.448981,1.342119,2.196938,255.123703,70.480759,17.648951,5.137665,2.725710,8.006745,2.867883,4.460727,4.706168,14.475298,9.376404,5.439662,3.394335,2.616849,6.528884,9.537507,3.742495,1.578837,0.476200,0.796180,28.444565,11.486673,5.508181,9.313645,17.489157,52.483109,33.860489,17.355022,8.820107,12.363872,275.899139,91.213127,46.826385,14.273637,22.958700,14.215418,4.188495,4.519802,1.541259,2.891044,12.099233,6.995692,4.226690,2.473204,3.621029,15.211298,4.545452,4.837663,1.673447,3.292513
1605178929.090904,115.000000,0.000000,4157.563965,4633.717773,4074.230713,4190.128418,4162.563965,4127.563965,4211.666504,4140.256348,4288.846191,4344.230957,4276.538574,3956.794922,4375.641113,3999.230713,2770.000000,3.000000,,,,0.000000,4.000000,4.000000,4.000000,4.000000,4.000000,4.000000,4.000000,2.000000,4.000000,4.000000,4.000000,4.000000,4.000000,4.000000,83.333336,,,,,,,,,,,,,,,,,,,,,,,,,,,,,,,,,,,,,,,,,,,,,,,,,,,,,,,,,,,,,,,,,,,,,,
1605178929.098886,116.000000,0.000000,4164.615234,4639.358887,4076.281982,4206.153809,4203.717773,4125.641113,4215.769043,4146.538574,4297.820313,4341.282227,4311.282227,3962.564209,4392.948730,4008.205078,5770.000000,3.000000,,,,0.000000,4.000000,4.000000,4.000000,4.000000,4.000000,4.000000,4.000000,2.000000,4.000000,4.000000,4.000000,4.000000,4.000000,4.000000,83.333336,,,,,,,,,,,,,,,,,,,,,,,,,,,,,,,,,,,,,,,,,,,,,,,,,,,,,,,,,,,,,,,,,,,,,,
1605178929.106767,117.000000,0.000000,4193.589844,4667.051270,4085.256348,4240.384766,4224.358887,4145.512695,4232.436035,4157.820313,4331.666504,4362.179688,4369.102539,3982.948730,4418.333496,4031.666748,2661.000000,3.000000,,,,0.000000,4.000000,4.000000,4.000000,4.000000,4.000000,4.000000,4.000000,2.000000,4.000000,4.000000,4.000000,4.000000,4.000000,4.000000,83.333336,,,,,,,,,,,,,,,,,,,,,,,,,,,,,,,,,,,,,,,,,,,,,,,,,,,,,,,,,,,,,,,,,,,,,,
1605178929.114549,118.000000,0.000000,4223.846191,4701.666504,4108.333496,4269.230957,4208.333496,4176.922852,4257.563965,4170.256348,4366.538574,4430.000000,4472.436035,4022.948730,4465.256348,4065.769287,2668.000000,3.000000,,,,0.000000,4.000000,4.000000,4.000000,4.000000,4.000000,4.000000,4.000000,2.000000,4.000000,4.000000,4.000000,4.000000,4.000000,4.000000,83.333336,,,,,,,,,,,,,,,,,,,,,,,,,,,,,,,,,,,,,,,,,,,,,,,,,,,,,,,,,,,,,,,,,,,,,,
1605178929.122431,119.000000,0.000000,4229.358887,4724.743652,4123.205078,4284.743652,4200.769043,4191.794922,4276.025879,4179.615234,4381.922852,4503.717773,4572.563965,4050.641113,4501.282227,4088.846191,2770.000000,3.000000,,,,0.000000,4.000000,4.000000,4.000000,4.000000,4.000000,4.000000,4.000000,2.000000,4.000000,4.000000,4.000000,4.000000,4.000000,4.000000,83.333336,,,,,,,,,,,,,,,,,,,,,,,,,,,,,,,,,,,,,,,,,,,,,,,,,,,,,,,,,,,,,,,,,,,,,,
1605178929.130213,120.000000,0.000000,4210.384766,4709.487305,4116.153809,4281.922852,4183.333496,4168.974121,4262.948730,4179.358887,4376.538574,4491.025879,4566.025879,4032.564209,4482.436035,4070.641113,5770.000000,3.000000,,,,0.000000,4.000000,4.000000,4.000000,4.000000,4.000000,4.000000,4.000000,2.000000,4.000000,4.000000,4.000000,4.000000,4.000000,4.000000,83.333336,,,,,,,,,,,,,,,,,,,,,,,,,,,,,,,,,,,,,,,,,,,,,,,,,,,,,,,,,,,,,,,,,,,,,,
1605178929.138095,121.000000,0.000000,4202.051270,4685.897461,4110.641113,4272.692383,4139.871582,4163.846191,4250.769043,4175.256348,4377.051270,4430.384766,4508.461426,4011.153809,4465.769043,4049.102539,2661.000000,3.000000,,,,0.000000,4.000000,4.000000,4.000000,4.000000,4.000000,4.000000,4.000000,2.000000,4.000000,4.000000,4.000000,4.000000,4.000000,4.000000,83.333336,,,,,,,,,,,,,,,,,,,,,,,,,,,,,,,,,,,,,,,,,,,,,,,,,,,,,,,,,,,,,,,,,,,,,,
1605178929.145877,122.000000,0.000000,4195.384766,4673.461426,4108.461426,4262.692383,4121.538574,4174.102539,4250.000000,4172.307617,4383.589844,4407.948730,4485.000000,4008.076904,4478.846191,4045.384521,2668.000000,3.000000,,,,0.000000,4.000000,4.000000,4.000000,4.000000,4.000000,4.000000,4.000000,2.000000,4.000000,4.000000,4.000000,4.000000,4.000000,4.000000,83.333336,,,,,,,,,,,,,,,,,,,,,,,,,,,,,,,,,,,,,,,,,,,,,,,,,,,,,,,,,,,,,,,,,,,,,,
1605178929.153759,123.000000,0.000000,4179.102539,4656.794922,4100.512695,4259.487305,4152.051270,4151.794922,4237.948730,4165.769043,4344.230957,4423.589844,4473.589844,4005.000000,4484.487305,4042.051270,2770.000000,3.000000,,,,0.000000,4.000000,4.000000,4.000000,4.000000,4.000000,4.000000,4.000000,2.000000,4.000000,4.000000,4.000000,4.000000,4.000000,4.000000,83.333336,,,,,,,,,,,,,,,,,,,,,,,,,,,,,,,,,,,,,,,,,,,,,,,,,,,,,,,,,,,,,,,,,,,,,,
1605178929.161541,124.000000,0.000000,4165.256348,4633.205078,4102.051270,4258.205078,4147.179688,4150.128418,4242.563965,4161.922852,4312.820313,4423.077148,4471.025879,4005.384521,4484.358887,4041.410156,5770.000000,3.000000,,,,0.000000,4.000000,4.000000,4.000000,4.000000,4.000000,4.000000,4.000000,2.000000,4.000000,4.000000,4.000000,4.000000,4.000000,4.000000,83.333336,,,,,,,,,,,,,,,,,,,,,,,,,,,,,,,,,,,,,,,,,,,,,,,,,,,,,,,,,,,,,,,,,,,,,,
1605178929.169423,125.000000,0.000000,4159.487305,4616.282227,4104.487305,4247.692383,4107.692383,4174.102539,4257.307617,4162.307617,4340.384766,4377.692383,4459.743652,4004.230713,4489.230957,4039.871826,2661.000000,3.000000,,,,0.000000,4.000000,4.000000,4.000000,4.000000,4.000000,4.000000,4.000000,2.000000,4.000000,4.000000,4.000000,4.000000,4.000000,4.000000,83.333336,,,,,,,,,,,,,,,,,,,,,,,,,,,,,,,,,,,,,,,,,,,,,,,,,,,,,,,,,,,,,,,,,,,,,,
1605178929.177205,126.000000,0.000000,4150.256348,4605.641113,4092.820557,4235.128418,4122.820313,4148.461426,4234.743652,4154.102539,4324.615234,4318.717773,4410.384766,3990.128174,4482.179688,4027.307617,2668.000000,3.000000,,,,0.000000,4.000000,4.000000,4.000000,4.000000,4.000000,4.000000,4.000000,2.000000,4.000000,4.000000,4.000000,4.000000,4.000000,4.000000,83.333336,,,,,,,,,,,,,,,,,,,,,,,,,,,,,,,,,,,,,,,,,,,,,,,,,,,,,,,,,,,,,,,,,,,,,,
1605178929.185087,127.000000,0.000000,4118.717773,4583.846191,4089.230713,4228.589844,4114.615234,4145.769043,4233.077148,4146.666504,4287.051270,4300.256348,4370.128418,3984.230713,4480.256348,4018.461426,52.000000,3.000000,,,,0.000000,4.000000,4.000000,4.000000,4.000000,4.000000,4.000000,4.000000,2.000000,4.000000,4.000000,4.000000,4.000000,4.000000,4.000000,83.333336,,,,,,,,,,,,,,,,,,,,,,,,,,,,,,,,,,,,,,,,,,,,,,,,,,,,,,,,,,,,,,,,,,,,,,
1605178929.192869,0.000000,0.000000,4084.358887,4560.641113,4102.692383,4225.769043,4066.666748,4180.000000,4258.461426,4155.256348,4323.717773,4334.487305,4396.282227,3996.794922,4501.025879,4027.820557,1814.000000,3.000000,,,,0.000000,4.000000,4.000000,4.000000,4.000000,4.000000,4.000000,4.000000,2.000000,4.000000,4.000000,4.000000,4.000000,4.000000,4.000000,83.333336,,,,,,,,,,,,,,,,,,,,,,,,,,,,,,,,,,,,,,,,,,,,,,,,,,,,,,,,,,,,,,,,,,,,,,
1605178929.200751,1.000000,0.000000,4076.666748,4558.974121,4106.153809,4221.538574,4091.153809,4142.436035,4220.512695,4158.974121,4330.128418,4318.974121,4398.974121,3996.281982,4508.333496,4031.281982,3028.000000,3.000000,,,,0.000000,4.000000,4.000000,4.000000,4.000000,4.000000,4.000000,4.000000,2.000000,4.000000,4.000000,4.000000,4.000000,4.000000,4.000000,83.333336,,,,,,,,,,,,,,,,,,,,,,,,,,,,,,,,,,,,,,,,,,,,,,,,,,,,,,,,,,,,,,,,,,,,,,
1605178929.208533,2.000000,0.000000,4090.897461,4564.102539,4099.358887,4217.563965,4120.512695,4104.615234,4181.153809,4149.871582,4256.666504,4256.794922,4351.282227,3985.256348,4500.512695,4020.256348,3012.000000,3.000000,,,,0.000000,4.000000,4.000000,4.000000,4.000000,4.000000,4.000000,4.000000,2.000000,4.000000,4.000000,4.000000,4.000000,4.000000,4.000000,83.333336,62.696095,6.425217,4.747575,3.057042,5.745245,58.339478,18.197271,9.348582,2.970675,3.458680,5.638761,1.957361,1.934607,0.680642,1.404467,12.996948,6.747598,4.563361,1.450598,2.509018,214.734299,66.739616,18.928461,5.597483,3.203325,8.945318,2.813914,5.140391,5.825438,17.345270,11.588400,6.006922,3.842436,3.146818,7.808599,8.273522,3.351850,1.660174,0.561514,0.879517,31.017733,11.491704,6.819840,10.879306,20.916313,60.099571,35.135376,18.733732,10.429193,12.909245,250.765030,85.502663,54.470032,16.320444,26.188553,16.660095,4.153093,5.437478,1.778613,3.377740,16.072771,7.540593,5.500998,2.855504,4.127734,17.942991,4.484164,5.931442,1.890939,3.762196
1605178929.216515,3.000000,0.000000,4051.281982,4509.743652,4080.769287,4182.307617,4049.358887,4115.256348,4191.538574,4132.563965,4196.666504,4203.333496,4257.051270,3956.923096,4474.358887,3985.256348,3214.000000,3.000000,,,,0.000000,4.000000,4.000000,4.000000,4.000000,4.000000,4.000000,4.000000,2.000000,4.000000,4.000000,4.000000,4.000000,4.000000,4.000000,83.333336,,,,,,,,,,,,,,,,,,,,,,,,,,,,,,,,,,,,,,,,,,,,,,,,,,,,,,,,,,,,,,,,,,,,,,
1605178929.224397,4.000000,0.000000,4004.743652,4460.128418,4069.102539,4153.077148,3997.179443,4122.179688,4197.948730,4123.205078,4205.641113,4175.897461,4180.000000,3939.615479,4460.000000,3968.333252,3393.000000,3.000000,,,,0.000000,4.000000,4.000000,4.000000,4.000000,4.000000,4.000000,4.000000,2.000000,4.000000,4.000000,4.000000,4.000000,4.000000,4.000000,83.333336,,,,,,,,,,,,,,,,,,,,,,,,,,,,,,,,,,,,,,,,,,,,,,,,,,,,,,,,,,,,,,,,,,,,,,
1605178929.232379,5.000000,0.000000,4016.923096,4470.641113,4071.410156,4153.974121,4009.230713,4122.563965,4181.922852,4124.358887,4219.230957,4155.256348,4157.051270,3941.153809,4466.922852,3973.589844,2139.000000,3.000000,,,,0.000000,4.000000,4.000000,4.000000,4.000000,4.000000,4.000000,4.000000,2.000000,4.000000,4.000000,4.000000,4.000000,4.000000,4.000000,83.333336,,,,,,,,,,,,,,,,,,,,,,,,,,,,,,,,,,,,,,,,,,,,,,,,,,,,,,,,,,,,,,,,,,,,,,
1605178929.240261,6.000000,0.000000,4022.051270,4460.641113,4062.820557,4145.000000,4015.512939,4107.692383,4166.153809,4118.589844,4209.871582,4136.410156,4121.666504,3930.384521,4457.307617,3959.743652,2015.000000,3.000000,,,,0.000000,4.000000,4.000000,4.000000,4.000000,4.000000,4.000000,4.000000,2.000000,4.000000,4.000000,4.000000,4.000000,4.000000,4.000000,83.333336,,,,,,,,,,,,,,,,,,,,,,,,,,,,,,,,,,,,,,,,,,,,,,,,,,,,,,,,,,,,,,,,,,,,,,
1605178929.248243,7.000000,0.000000,3995.000000,4415.128418,4055.384521,4130.512695,4023.205078,4081.281982,4161.922852,4111.794922,4180.128418,4153.077148,4081.666748,3917.948730,4443.077148,3945.000000,989.000000,3.000000,,,,0.000000,4.000000,4.000000,4.000000,4.000000,4.000000,4.000000,4.000000,2.000000,4.000000,4.000000,4.000000,4.000000,4.000000,4.000000,83.333336,,,,,,,,,,,,,,,,,,,,,,,,,,,,,,,,,,,,,,,,,,,,,,,,,,,,,,,,,,,,,,,,,,,,,,
1605178929.256125,8.000000,0.000000,3997.435791,4406.025879,4070.897461,4148.333496,4016.666748,4108.846191,4180.000000,4122.692383,4155.256348,4176.794922,4103.333496,3929.743652,4461.666504,3960.512939,2946.000000,3.000000,,,,0.000000,4.000000,4.000000,4.000000,4.000000,4.000000,4.000000,4.000000,2.000000,4.000000,4.000000,4.000000,4.000000,4.000000,4.000000,83.333336,,,,,,,,,,,,,,,,,,,,,,,,,,,,,,,,,,,,,,,,,,,,,,,,,,,,,,,,,,,,,,,,,,,,,,
1605178929.264106,9.000000,0.000000,4021.794922,4411.666504,4085.641113,4156.666504,3977.948730,4135.384766,4179.487305,4136.282227,4182.820313,4144.230957,4121.666504,3935.512939,4476.538574,3967.179443,3770.000000,3.000000,,,,0.000000,4.000000,4.000000,4.000000,4.000000,4.000000,4.000000,4.000000,2.000000,4.000000,4.000000,4.000000,4.000000,4.000000,4.000000,83.333336,,,,,,,,,,,,,,,,,,,,,,,,,,,,,,,,,,,,,,,,,,,,,,,,,,,,,,,,,,,,,,,,,,,,,,
1605178929.271988,10.000000,0.000000,4018.333252,4391.410156,4079.615479,4129.487305,3983.461426,4127.820313,4167.307617,4133.717773,4221.794922,4105.128418,4098.333496,3926.025635,4468.974121,3956.410156,2641.000000,3.000000,,,,0.000000,4.000000,4.000000,4.000000,4.000000,4.000000,4.000000,4.000000,2.000000,4.000000,4.000000,4.000000,4.000000,4.000000,4.000000,83.333336,,,,,,,,,,,,,,,,,,,,,,,,,,,,,,,,,,,,,,,,,,,,,,,,,,,,,,,,,,,,,,,,,,,,,,
1605178929.279770,11.000000,0.000000,3988.846191,4357.948730,4068.333252,4105.128418,4004.358887,4123.846191,4169.743652,4124.358887,4166.025879,4110.769043,4061.538574,3914.743652,4464.871582,3949.230713,2774.000000,3.000000,,,,0.000000,4.000000,4.000000,4.000000,4.000000,4.000000,4.000000,4.000000,2.000000,4.000000,4.000000,4.000000,4.000000,4.000000,4.000000,83.333336,,,,,,,,,,,,,,,,,,,,,,,,,,,,,,,,,,,,,,,,,,,,,,,,,,,,,,,,,,,,,,,,,,,,,,
1605178929.287652,12.000000,0.000000,4001.025635,4362.692383,4072.564209,4124.615234,4004.743652,4102.563965,4151.025879,4121.410156,4105.897461,4144.615234,4050.897461,3922.564209,4489.102539,3962.179443,5705.000000,3.000000,,,,0.000000,4.000000,4.000000,4.000000,4.000000,4.000000,4.000000,4.000000,2.000000,4.000000,4.000000,4.000000,4.000000,4.000000,4.000000,83.333336,,,,,,,,,,,,,,,,,,,,,,,,,,,,,,,,,,,,,,,,,,,,,,,,,,,,,,,,,,,,,,,,,,,,,,
1605178929.295434,13.000000,0.000000,4065.641113,4414.743652,4098.589844,4175.000000,4024.102539,4115.769043,4150.384766,4135.384766,4183.846191,4196.025879,4143.846191,3971.538574,4547.436035,4011.025635,2666.000000,3.000000,,,,0.000000,4.000000,4.000000,4.000000,4.000000,4.000000,4.000000,4.000000,2.000000,4.000000,4.000000,4.000000,4.000000,4.000000,4.000000,83.333336,,,,,,,,,,,,,,,,,,,,,,,,,,,,,,,,,,,,,,,,,,,,,,,,,,,,,,,,,,,,,,,,,,,,,,
1605178929.303416,14.000000,0.000000,4102.563965,4450.384766,4113.846191,4209.102539,4074.615479,4165.256348,4186.922852,4150.128418,4258.461426,4235.128418,4275.128418,4013.589844,4604.230957,4053.589844,2641.000000,3.000000,,,,0.000000,4.000000,4.000000,4.000000,4.000000,4.000000,4.000000,4.000000,2.000000,4.000000,4.000000,4.000000,4.000000,4.000000,4.000000,83.333336,,,,,,,,,,,,,,,,,,,,,,,,,,,,,,,,,,,,,,,,,,,,,,,,,,,,,,,,,,,,,,,,,,,,,,
1605178929.311298,15.000000,0.000000,4109.102539,4457.820313,4113.077148,4226.538574,4128.717773,4161.794922,4197.307617,4152.692383,4236.410156,4232.563965,4321.153809,4015.000000,4634.615234,4060.256348,2774.000000,3.000000,,,,0.000000,4.000000,4.000000,4.000000,4.000000,4.000000,4.000000,4.000000,2.000000,4.000000,4.000000,4.000000,4.000000,4.000000,4.000000,83.333336,,,,,,,,,,,,,,,,,,,,,,,,,,,,,,,,,,,,,,,,,,,,,,,,,,,,,,,,,,,,,,,,,,,,,,
1605178929.319280,16.000000,0.000000,4166.153809,4495.000000,4128.974121,4260.000000,4159.102539,4167.820313,4208.974121,4163.589844,4280.769043,4251.025879,4381.922852,4039.743652,4677.692383,4090.128174,0.000000,3.000000,,,,0.000000,4.000000,4.000000,4.000000,4.000000,4.000000,4.000000,4.000000,2.000000,4.000000,4.000000,4.000000,4.000000,4.000000,4.000000,83.333336,,,,,,,,,,,,,,,,,,,,,,,,,,,,,,,,,,,,,,,,,,,,,,,,,,,,,,,,,,,,,,,,,,,,,,
1605178929.327162,17.000000,0.000000,4224.615234,4533.205078,4146.025879,4281.538574,4158.589844,4236.922852,4251.794922,4180.512695,4345.000000,4314.615234,4510.897461,4081.025635,4735.384766,4133.333496,0.000000,3.000000,,,,0.000000,4.000000,4.000000,4.000000,4.000000,4.000000,4.000000,4.000000,2.000000,4.000000,4.000000,4.000000,4.000000,4.000000,4.000000,83.333336,,,,,,,,,,,,,,,,,,,,,,,,,,,,,,,,,,,,,,,,,,,,,,,,,,,,,,,,,,,,,,,,,,,,,,
1605178929.335144,18.000000,0.000000,4201.538574,4507.692383,4131.666504,4257.563965,4143.205078,4246.410156,4252.179688,4178.717773,4321.794922,4327.179688,4552.948730,4070.000000,4753.077148,4121.666504,0.000000,3.000000,,,,0.000000,4.000000,4.000000,4.000000,4.000000,4.000000,4.000000,4.000000,2.000000,4.000000,4.000000,4.000000,4.000000,4.000000,4.000000,83.333336,60.396854,8.127445,6.259856,3.484077,6.130750,76.448082,19.479393,11.441999,3.131145,3.746807,6.491088,1.952926,2.244667,0.780699,1.533922,15.583495,7.026028,5.498272,1.452614,2.757700,162.259048,56.864777,18.314407,5.612794,3.599833,9.910794,2.685035,5.558565,6.864434,19.510483,14.100753,6.302324,3.996036,3.581312,8.821076,7.371227,2.761222,1.652899,0.625919,0.938417,34.381851,11.009275,8.111029,11.874597,24.519659,73.768387,34.498093,19.074858,11.416179,12.806947,254.358704,77.987946,59.353413,17.906027,28.599514,20.193838,4.352100,6.135526,1.954371,3.769040,20.994551,7.896550,6.607785,3.133386,4.460069,22.003443,4.599720,6.821306,2.039812,4.121248
1605178929.343026,19.000000,0.000000,4153.205078,4453.846191,4107.307617,4223.333496,4146.282227,4157.820313,4189.230957,4162.436035,4268.461426,4288.846191,4460.512695,4026.153809,4732.051270,4075.769287,0.000000,3.000000,,,,0.000000,4.000000,4.000000,4.000000,4.000000,4.000000,4.000000,4.000000,2.000000,4.000000,4.000000,4.000000,4.000000,4.000000,4.000000,83.333336,,,,,,,,,,,,,,,,,,,,,,,,,,,,,,,,,,,,,,,,,,,,,,,,,,,,,,,,,,,,,,,,,,,,,,
1605178929.351008,20.000000,0.000000,4165.128418,4455.512695,4114.615234,4231.410156,4165.769043,4157.307617,4186.794922,4162.820313,4270.384766,4308.077148,4426.282227,4030.256348,4751.282227,4079.743652,0.000000,3.000000,,,,0.000000,4.000000,4.000000,4.000000,4.000000,4.000000,4.000000,4.000000,2.000000,4.000000,4.000000,4.000000,4.000000,4.000000,4.000000,83.333336,,,,,,,,,,,,,,,,,,,,,,,,,,,,,,,,,,,,,,,,,,,,,,,,,,,,,,,,,,,,,,,,,,,,,,
1605178929.358891,21.000000,0.000000,4227.051270,4501.410156,4145.128418,4263.589844,4179.871582,4256.410156,4254.487305,4186.410156,4348.077148,4369.102539,4549.615234,4077.307617,4824.102539,4128.846191,0.000000,3.000000,,,,0.000000,4.000000,4.000000,4.000000,4.000000,4.000000,4.000000,4.000000,2.000000,4.000000,4.000000,4.000000,4.000000,4.000000,4.000000,83.333336,,,,,,,,,,,,,,,,,,,,,,,,,,,,,,,,,,,,,,,,,,,,,,,,,,,,,,,,,,,,,,,,,,,,,,
1605178929.366873,22.000000,0.000000,4254.743652,4499.871582,4151.794922,4257.820313,4175.769043,4266.282227,4260.256348,4199.102539,4377.820313,4355.256348,4621.794922,4087.692383,4858.717773,4139.358887,0.000000,3.000000,,,,0.000000,4.000000,4.000000,4.000000,4.000000,4.000000,4.000000,4.000000,2.000000,4.000000,4.000000,4.000000,4.000000,4.000000,4.000000,83.333336,,,,,,,,,,,,,,,,,,,,,,,,,,,,,,,,,,,,,,,,,,,,,,,,,,,,,,,,,,,,,,,,,,,,,,
1605178929.374755,23.000000,0.000000,4234.487305,4462.179688,4132.563965,4231.538574,4173.461426,4190.512695,4201.794922,4188.333496,4313.846191,4298.717773,4557.179688,4061.410156,4853.461426,4114.615234,0.000000,3.000000,,,,0.000000,4.000000,4.000000,4.000000,4.000000,4.000000,4.000000,4.000000,2.000000,4.000000,4.000000,4.000000,4.000000,4.000000,4.000000,83.333336,,,,,,,,,,,,,,,,,,,,,,,,,,,,,,,,,,,,,,,,,,,,,,,,,,,,,,,,,,,,,,,,,,,,,,
1605178929.382737,24.000000,0.000000,4211.794922,4449.102539,4120.897461,4222.563965,4171.922852,4177.820313,4186.538574,4177.051270,4266.153809,4280.000000,4497.307617,4044.230713,4865.512695,4099.743652,0.000000,3.000000,,,,0.000000,4.000000,4.000000,4.000000,4.000000,4.000000,4.000000,4.000000,2.000000,4.000000,4.000000,4.000000,4.000000,4.000000,4.000000,83.333336,,,,,,,,,,,,,,,,,,,,,,,,,,,,,,,,,,,,,,,,,,,,,,,,,,,,,,,,,,,,,,,,,,,,,,
1605178929.390619,25.000000,0.000000,4231.153809,4469.615234,4133.333496,4243.461426,4169.743652,4233.717773,4226.410156,4183.589844,4310.897461,4292.948730,4528.974121,4062.820557,4908.974121,4117.051270,0.000000,3.000000,,,,0.000000,4.000000,4.000000,4.000000,4.000000,4.000000,4.000000,4.000000,2.000000,4.000000,4.000000,4.000000,4.000000,4.000000,4.000000,83.333336,,,,,,,,,,,,,,,,,,,,,,,,,,,,,,,,,,,,,,,,,,,,,,,,,,,,,,,,,,,,,,,,,,,,,,
1605178929.398601,26.000000,0.000000,4277.563965,4484.487305,4146.794922,4264.615234,4183.461426,4248.589844,4223.974121,4194.615234,4336.922852,4310.128418,4575.128418,4082.179443,4950.384766,4133.461426,0.000000,3.000000,,,,0.000000,4.000000,4.000000,4.000000,4.000000,4.000000,4.000000,4.000000,2.000000,4.000000,4.000000,4.000000,4.000000,4.000000,4.000000,83.333336,,,,,,,,,,,,,,,,,,,,,,,,,,,,,,,,,,,,,,,,,,,,,,,,,,,,,,,,,,,,,,,,,,,,,,
1605178929.406483,27.000000,0.000000,4303.333496,4482.820313,4147.563965,4257.948730,4186.922852,4258.974121,4193.077148,4195.512695,4314.615234,4315.512695,4597.820313,4085.384521,4979.743652,4136.922852,0.000000,3.000000,,,,0.000000,4.000000,4.000000,4.000000,4.000000,4.000000,4.000000,4.000000,2.000000,4.000000,4.000000,4.000000,4.000000,4.000000,4.000000,83.333336,,,,,,,,,,,,,,,,,,,,,,,,,,,,,,,,,,,,,,,,,,,,,,,,,,,,,,,,,,,,,,,,,,,,,,
1605178929.414264,28.000000,0.000000,4268.717773,4449.743652,4135.769043,4219.487305,4144.102539,4271.922852,4170.256348,4182.051270,4297.436035,4272.051270,4557.563965,4063.589844,4977.307617,4117.563965,0.000000,3.000000,,,,0.000000,4.000000,4.000000,4.000000,4.000000,4.000000,4.000000,4.000000,2.000000,4.000000,4.000000,4.000000,4.000000,4.000000,4.000000,83.333336,,,,,,,,,,,,,,,,,,,,,,,,,,,,,,,,,,,,,,,,,,,,,,,,,,,,,,,,,,,,,,,,,,,,,,
1605178929.422146,29.000000,0.000000,4246.025879,4420.128418,4126.282227,4201.666504,4120.512695,4255.641113,4150.128418,4166.025879,4280.512695,4232.563965,4470.769043,4040.512939,4966.538574,4093.974365,0.000000,3.000000,,,,0.000000,4.000000,4.000000,4.000000,4.000000,4.000000,4.000000,4.000000,2.000000,4.000000,4.000000,4.000000,4.000000,4.000000,4.000000,83.333336,,,,,,,,,,,,,,,,,,,,,,,,,,,,,,,,,,,,,,,,,,,,,,,,,,,,,,,,,,,,,,,,,,,,,,
1605178929.429928,30.000000,0.000000,4273.077148,4423.461426,4131.282227,4212.051270,4127.051270,4256.666504,4142.307617,4165.512695,4275.512695,4233.205078,4454.230957,4044.871826,4984.230957,4096.025879,0.000000,3.000000,,,,0.000000,4.000000,4.000000,4.000000,4.000000,4.000000,4.000000,4.000000,2.000000,4.000000,4.000000,4.000000,4.000000,4.000000,4.000000,83.333336,,,,,,,,,,,,,,,,,,,,,,,,,,,,,,,,,,,,,,,,,,,,,,,,,,,,,,,,,,,,,,,,,,,,,,
1605178929.437810,31.000000,0.000000,4276.794922,4427.820313,4136.794922,4208.846191,4116.410156,4281.282227,4146.666504,4172.563965,4259.743652,4239.743652,4476.666504,4058.205078,5003.589844,4111.410156,0.000000,3.000000,,,,0.000000,4.000000,4.000000,4.000000,4.000000,4.000000,4.000000,4.000000,2.000000,4.000000,4.000000,4.000000,4.000000,4.000000,4.000000,83.333336,,,,,,,,,,,,,,,,,,,,,,,,,,,,,,,,,,,,,,,,,,,,,,,,,,,,,,,,,,,,,,,,,,,,,,
1605178929.445592,32.000000,0.000000,4268.077148,4433.333496,4143.589844,4212.307617,4117.051270,4301.666504,4158.461426,4174.615234,4258.333496,4247.307617,4489.615234,4068.205078,5013.589844,4125.641113,0.000000,3.000000,,,,0.000000,4.000000,4.000000,4.000000,4.000000,4.000000,4.000000,4.000000,2.000000,4.000000,4.000000,4.000000,4.000000,4.000000,4.000000,83.333336,,,,,,,,,,,,,,,,,,,,,,,,,,,,,,,,,,,,,,,,,,,,,,,,,,,,,,,,,,,,,,,,,,,,,,
1605178929.453474,33.000000,0.000000,4285.512695,4449.743652,4154.358887,4229.102539,4148.589844,4308.205078,4164.615234,4176.666504,4301.794922,4257.692383,4520.384766,4077.051270,5030.128418,4137.563965,0.000000,3.000000,,,,0.000000,4.000000,4.000000,4.000000,4.000000,4.000000,4.000000,4.000000,2.000000,4.000000,4.000000,4.000000,4.000000,4.000000,4.000000,83.333336,,,,,,,,,,,,,,,,,,,,,,,,,,,,,,,,,,,,,,,,,,,,,,,,,,,,,,,,,,,,,,,,,,,,,,
1605178929.461256,34.000000,0.000000,4304.743652,4464.102539,4163.077148,4236.794922,4191.153809,4316.538574,4167.692383,4188.717773,4332.051270,4265.641113,4567.948730,4086.923096,5056.410156,4147.436035,0.000000,3.000000,,,,0.000000,4.000000,4.000000,4.000000,4.000000,4.000000,4.000000,4.000000,2.000000,4.000000,4.000000,4.000000,4.000000,4.000000,4.000000,83.333336,61.883385,10.602914,7.462726,3.791333,6.019750,88.234962,20.013590,12.183960,3.074307,3.832334,7.638390,2.217276,2.372650,0.839577,1.577340,19.728174,8.094798,5.954606,1.375782,2.857322,112.827759,45.005535,16.316835,5.189100,3.850225,10.561865,2.731397,5.633274,7.489168,20.336220,16.062195,6.442343,3.854368,3.779490,9.267732,6.861514,2.243921,1.571004,0.658709,0.951107,37.478779,10.963583,9.065968,12.123518,27.521868,88.370399,33.601215,18.200666,11.617105,12.088754,279.403839,76.335701,60.287457,18.741167,29.275940,24.864689,5.138075,6.381534,2.044079,3.953719,27.587614,8.121957,7.242953,3.279741,4.516643,27.465723,5.254089,7.206405,2.098163,4.251745
1605178929.469138,35.000000,0.000000,4316.025879,4463.461426,4162.307617,4238.461426,4221.282227,4322.179688,4172.563965,4197.307617,4318.333496,4271.410156,4583.974121,4089.358887,5072.563965,4147.307617,0.000000,3.000000,,,,0.000000,4.000000,4.000000,4.000000,4.000000,4.000000,4.000000,4.000000,2.000000,4.000000,4.000000,4.000000,4.000000,4.000000,4.000000,83.333336,,,,,,,,,,,,,,,,,,,,,,,,,,,,,,,,,,,,,,,,,,,,,,,,,,,,,,,,,,,,,,,,,,,,,,
1605178929.476920,36.000000,0.000000,4339.615234,4463.717773,4164.871582,4244.615234,4242.436035,4327.563965,4180.256348,4198.846191,4317.051270,4298.077148,4608.077148,4092.948730,5082.307617,4150.641113,0.000000,3.000000,,,,0.000000,4.000000,4.000000,4.000000,4.000000,4.000000,4.000000,4.000000,2.000000,4.000000,4.000000,4.000000,4.000000,4.000000,4.000000,83.333336,,,,,,,,,,,,,,,,,,,,,,,,,,,,,,,,,,,,,,,,,,,,,,,,,,,,,,,,,,,,,,,,,,,,,,
1605178929.484802,37.000000,0.000000,4348.205078,4469.102539,4175.384766,4247.948730,4254.230957,4348.717773,4190.641113,4206.666504,4334.743652,4326.794922,4667.436035,4105.769043,5096.538574,4166.666504,0.000000,3.000000,,,,0.000000,4.000000,4.000000,4.000000,4.000000,4.000000,4.000000,4.000000,2.000000,4.000000,4.000000,4.000000,4.000000,4.000000,4.000000,83.333336,,,,,,,,,,,,,,,,,,,,,,,,,,,,,,,,,,,,,,,,,,,,,,,,,,,,,,,,,,,,,,,,,,,,,,
1605178929.492584,38.000000,0.000000,4337.820313,4467.820313,4181.922852,4247.307617,4258.077148,4362.692383,4193.974121,4214.743652,4349.871582,4321.666504,4695.000000,4112.948730,5097.563965,4174.871582,0.000000,3.000000,,,,0.000000,4.000000,4.000000,4.000000,4.000000,4.000000,4.000000,4.000000,2.000000,4.000000,4.000000,4.000000,4.000000,4.000000,4.000000,83.333336,,,,,,,,,,,,,,,,,,,,,,,,,,,,,,,,,,,,,,,,,,,,,,,,,,,,,,,,,,,,,,,,,,,,,,
1605178929.500466,39.000000,0.000000,4327.563965,4449.615234,4175.512695,4234.358887,4239.358887,4353.974121,4183.717773,4208.461426,4362.179688,4285.641113,4653.717773,4103.205078,5068.846191,4164.871582,0.000000,3.000000,,,,0.000000,4.000000,4.000000,4.000000,4.000000,4.000000,4.000000,4.000000,2.000000,4.000000,4.000000,4.000000,4.000000,4.000000,4.000000,83.333336,,,,,,,,,,,,,,,,,,,,,,,,,,,,,,,,,,,,,,,,,,,,,,,,,,,,,,,,,,,,,,,,,,,,,,
1605178929.508248,40.000000,0.000000,4304.615234,4425.000000,4166.538574,4213.589844,4214.487305,4341.538574,4167.307617,4195.897461,4335.512695,4266.410156,4604.102539,4091.538574,5032.563965,4154.615234,0.000000,3.000000,,,,0.000000,4.000000,4.000000,4.000000,4.000000,4.000000,4.000000,4.000000,2.000000,4.000000,4.000000,4.000000,4.000000,4.000000,4.000000,83.333336,,,,,,,,,,,,,,,,,,,,,,,,,,,,,,,,,,,,,,,,,,,,,,,,,,,,,,,,,,,,,,,,,,,,,,
1605178929.516130,41.000000,0.000000,4278.461426,4401.538574,4163.077148,4202.820313,4204.743652,4338.974121,4157.179688,4191.666504,4291.025879,4260.000000,4570.384766,4084.358887,5010.000000,4148.205078,0.000000,3.000000,,,,0.000000,4.000000,4.000000,4.000000,4.000000,4.000000,4.000000,4.000000,2.000000,4.000000,4.000000,4.000000,4.000000,4.000000,4.000000,83.333336,,,,,,,,,,,,,,,,,,,,,,,,,,,,,,,,,,,,,,,,,,,,,,,,,,,,,,,,,,,,,,,,,,,,,,
1605178929.523912,42.000000,0.000000,4270.512695,4371.794922,4159.358887,4197.563965,4200.641113,4328.333496,4147.692383,4190.384766,4280.512695,4253.846191,4534.615234,4076.025635,4992.563965,4139.102539,0.000000,3.000000,,,,0.000000,4.000000,4.000000,4.000000,4.000000,4.000000,4.000000,4.000000,2.000000,4.000000,4.000000,4.000000,4.000000,4.000000,4.000000,83.333336,,,,,,,,,,,,,,,,,,,,,,,,,,,,,,,,,,,,,,,,,,,,,,,,,,,,,,,,,,,,,,,,,,,,,,
1605178929.531793,43.000000,0.000000,4254.487305,4326.282227,4149.743652,4174.615234,4176.666504,4303.717773,4128.333496,4181.153809,4239.615234,4233.589844,4468.717773,4060.256348,4953.846191,4122.307617,0.000000,3.000000,,,,0.000000,4.000000,4.000000,4.000000,4.000000,4.000000,4.000000,4.000000,2.000000,4.000000,4.000000,4.000000,4.000000,4.000000,4.000000,83.333336,,,,,,,,,,,,,,,,,,,,,,,,,,,,,,,,,,,,,,,,,,,,,,,,,,,,,,,,,,,,,,,,,,,,,,
1605178929.539575,44.000000,0.000000,4235.769043,4298.077148,4148.077148,4160.256348,4153.077148,4293.589844,4116.153809,4174.358887,4190.256348,4196.025879,4419.743652,4057.564209,4916.794922,4120.000000,0.000000,3.000000,,,,0.000000,4.000000,4.000000,4.000000,4.000000,4.000000,4.000000,4.000000,2.000000,4.000000,4.000000,4.000000,4.000000,4.000000,4.000000,83.333336,,,,,,,,,,,,,,,,,,,,,,,,,,,,,,,,,,,,,,,,,,,,,,,,,,,,,,,,,,,,,,,,,,,,,,
1605178929.547557,45.000000,0.000000,4208.974121,4271.666504,4150.512695,4152.051270,4114.102539,4314.871582,4128.461426,4168.974121,4179.230957,4144.615234,4373.205078,4059.871826,4877.051270,4125.256348,0.000000,3.000000,,,,0.000000,4.000000,4.000000,4.000000,4.000000,4.000000,4.000000,4.000000,2.000000,4.000000,4.000000,4.000000,4.000000,4.000000,4.000000,83.333336,,,,,,,,,,,,,,,,,,,,,,,,,,,,,,,,,,,,,,,,,,,,,,,,,,,,,,,,,,,,,,,,,,,,,,
1605178929.555440,46.000000,0.000000,4193.717773,4243.077148,4149.615234,4146.282227,4075.769287,4338.846191,4145.256348,4162.820313,4173.974121,4117.436035,4331.153809,4069.102539,4843.717773,4135.384766,0.000000,3.000000,,,,0.000000,4.000000,4.000000,4.000000,4.000000,4.000000,4.000000,4.000000,2.000000,4.000000,4.000000,4.000000,4.000000,4.000000,4.000000,83.333336,,,,,,,,,,,,,,,,,,,,,,,,,,,,,,,,,,,,,,,,,,,,,,,,,,,,,,,,,,,,,,,,,,,,,,
1605178929.563421,47.000000,0.000000,4201.410156,4219.871582,4139.871582,4131.025879,4063.974365,4288.589844,4104.743652,4155.897461,4157.051270,4105.256348,4297.820313,4063.333252,4823.717773,4123.461426,0.000000,3.000000,,,,0.000000,4.000000,4.000000,4.000000,4.000000,4.000000,4.000000,4.000000,2.000000,4.000000,4.000000,4.000000,4.000000,4.000000,4.000000,83.333336,,,,,,,,,,,,,,,,,,,,,,,,,,,,,,,,,,,,,,,,,,,,,,,,,,,,,,,,,,,,,,,,,,,,,,
1605178929.571303,48.000000,0.000000,4202.179688,4207.692383,4129.487305,4115.384766,4044.487061,4240.000000,4059.358887,4145.256348,4137.436035,4091.538574,4251.282227,4047.051270,4802.436035,4105.000000,0.000000,3.000000,,,,0.000000,4.000000,4.000000,4.000000,4.000000,4.000000,4.000000,4.000000,2.000000,4.000000,4.000000,4.000000,4.000000,4.000000,4.000000,83.333336,,,,,,,,,,,,,,,,,,,,,,,,,,,,,,,,,,,,,,,,,,,,,,,,,,,,,,,,,,,,,,,,,,,,,,
1605178929.579185,49.000000,0.000000,4187.051270,4217.051270,4141.410156,4123.974121,3993.718018,4281.153809,4086.666748,4140.256348,4132.563965,4086.666748,4237.436035,4066.281982,4782.820313,4130.000000,0.000000,3.000000,,,,0.000000,4.000000,4.000000,4.000000,4.000000,4.000000,4.000000,4.000000,2.000000,4.000000,4.000000,4.000000,4.000000,4.000000,4.000000,83.333336,,,,,,,,,,,,,,,,,,,,,,,,,,,,,,,,,,,,,,,,,,,,,,,,,,,,,,,,,,,,,,,,,,,,,,
1605178929.587067,50.000000,0.000000,4210.000000,4248.461426,4165.641113,4147.179688,3977.948730,4338.717773,4133.205078,4152.692383,4173.333496,4108.846191,4298.077148,4105.512695,4788.205078,4169.743652,0.000000,3.000000,,,,0.000000,4.000000,4.000000,4.000000,4.000000,4.000000,4.000000,4.000000,2.000000,4.000000,4.000000,4.000000,4.000000,4.000000,4.000000,83.333336,65.369194,13.384875,7.953090,3.941686,5.461109,94.652863,20.326860,11.357959,2.869547,3.696676,8.791849,2.745147,2.277297,0.855623,1.520143,26.202923,9.926062,5.844092,1.295134,2.765334,77.361855,34.548145,13.785431,4.497080,3.928520,10.824744,3.030755,5.385125,7.487325,19.602489,17.393524,6.504028,3.548427,3.685562,9.032900,6.856991,1.956489,1.437868,0.659970,0.909930,41.997959,11.664386,9.520741,11.667378,29.098721,111.067169,33.112572,16.398241,11.177468,10.924565,330.023468,83.106827,57.304451,18.762054,27.917902,30.184202,6.528212,6.083992,2.050780,3.883712,36.858952,8.404068,7.262600,3.300053,4.293037,34.002941,6.523893,6.945663,2.071628,4.105934
1605178929.594849,51.000000,0.000000,4235.641113,4251.538574,4162.820313,4136.025879,4008.846191,4321.282227,4116.666504,4160.512695,4186.410156,4124.487305,4326.666504,4087.435791,4776.666504,4145.128418,0.000000,3.000000,,,,0.000000,4.000000,4.000000,4.000000,4.000000,4.000000,4.000000,4.000000,2.000000,4.000000,4.000000,4.000000,4.000000,4.000000,4.000000,83.333336,,,,,,,,,,,,,,,,,,,,,,,,,,,,,,,,,,,,,,,,,,,,,,,,,,,,,,,,,,,,,,,,,,,,,,
1605178929.602731,52.000000,0.000000,4173.846191,4202.307617,4126.922852,4084.743652,4001.025635,4262.179688,4067.564209,4136.410156,4110.128418,4063.718018,4205.000000,4021.923096,4705.897461,4074.743652,0.000000,3.000000,,,,0.000000,4.000000,4.000000,4.000000,4.000000,4.000000,4.000000,4.000000,2.000000,4.000000,4.000000,4.000000,4.000000,4.000000,4.000000,83.333336,,,,,,,,,,,,,,,,,,,,,,,,,,,,,,,,,,,,,,,,,,,,,,,,,,,,,,,,,,,,,,,,,,,,,,
1605178929.610513,53.000000,0.000000,4133.717773,4199.743652,4124.358887,4086.794922,3979.102539,4268.461426,4074.871826,4126.538574,4106.538574,4036.794922,4145.000000,4027.948730,4669.871582,4079.102539,0.000000,3.000000,,,,0.000000,4.000000,4.000000,4.000000,4.000000,4.000000,4.000000,4.000000,2.000000,4.000000,4.000000,4.000000,4.000000,4.000000,4.000000,83.333336,,,,,,,,,,,,,,,,,,,,,,,,,,,,,,,,,,,,,,,,,,,,,,,,,,,,,,,,,,,,,,,,,,,,,,
1605178929.618395,54.000000,0.000000,4182.692383,4251.666504,4156.794922,4134.615234,4004.743652,4328.333496,4121.794922,4149.358887,4201.282227,4117.179688,4253.589844,4078.076904,4694.102539,4125.128418,0.000000,3.000000,,,,0.000000,4.000000,4.000000,4.000000,4.000000,4.000000,4.000000,4.000000,2.000000,4.000000,4.000000,4.000000,4.000000,4.000000,4.000000,83.333336,,,,,,,,,,,,,,,,,,,,,,,,,,,,,,,,,,,,,,,,,,,,,,,,,,,,,,,,,,,,,,,,,,,,,,
1605178929.626177,55.000000,0.000000,4191.922852,4258.333496,4155.000000,4126.153809,4031.666748,4336.410156,4131.153809,4151.922852,4201.153809,4145.512695,4278.846191,4059.743652,4678.974121,4100.769043,0.000000,3.000000,,,,0.000000,4.000000,4.000000,4.000000,4.000000,4.000000,4.000000,4.000000,2.000000,4.000000,4.000000,4.000000,4.000000,4.000000,4.000000,83.333336,,,,,,,,,,,,,,,,,,,,,,,,,,,,,,,,,,,,,,,,,,,,,,,,,,,,,,,,,,,,,,,,,,,,,,
1605178929.634159,56.000000,0.000000,4162.820313,4245.897461,4136.922852,4093.846191,4030.000000,4300.384766,4106.025879,4140.769043,4139.743652,4106.025879,4204.743652,4032.307617,4641.410156,4069.871826,0.000000,3.000000,,,,0.000000,4.000000,4.000000,4.000000,4.000000,4.000000,4.000000,4.000000,2.000000,4.000000,4.000000,4.000000,4.000000,4.000000,4.000000,83.333336,,,,,,,,,,,,,,,,,,,,,,,,,,,,,,,,,,,,,,,,,,,,,,,,,,,,,,,,,,,,,,,,,,,,,,
1605178929.642041,57.000000,0.000000,4204.487305,4289.871582,4162.692383,4127.307617,4039.102539,4330.641113,4120.769043,4161.538574,4186.025879,4180.256348,4289.230957,4084.615479,4669.743652,4123.205078,0.000000,3.000000,,,,0.000000,4.000000,4.000000,4.000000,4.000000,4.000000,4.000000,4.000000,2.000000,4.000000,4.000000,4.000000,4.000000,4.000000,4.000000,83.333336,,,,,,,,,,,,,,,,,,,,,,,,,,,,,,,,,,,,,,,,,,,,,,,,,,,,,,,,,,,,,,,,,,,,,,
1605178929.650023,58.000000,0.000000,4251.538574,4328.974121,4191.922852,4160.769043,4067.051270,4374.230957,4148.846191,4190.384766,4277.948730,4281.410156,4438.461426,4123.846191,4700.384766,4162.692383,0.000000,3.000000,,,,0.000000,4.000000,4.000000,4.000000,4.000000,4.000000,4.000000,4.000000,2.000000,4.000000,4.000000,4.000000,4.000000,4.000000,4.000000,83.333336,,,,,,,,,,,,,,,,,,,,,,,,,,,,,,,,,,,,,,,,,,,,,,,,,,,,,,,,,,,,,,,,,,,,,,
1605178929.657905,59.000000,0.000000,4208.333496,4286.922852,4166.666504,4116.794922,4077.948730,4333.205078,4128.333496,4177.692383,4253.333496,4227.692383,4383.333496,4075.641113,4642.563965,4108.589844,0.000000,3.000000,,,,0.000000,4.000000,4.000000,4.000000,4.000000,4.000000,4.000000,4.000000,2.000000,4.000000,4.000000,4.000000,4.000000,4.000000,4.000000,83.333336,,,,,,,,,,,,,,,,,,,,,,,,,,,,,,,,,,,,,,,,,,,,,,,,,,,,,,,,,,,,,,,,,,,,,,
1605178929.665887,60.000000,0.000000,4157.820313,4223.974121,4139.487305,4066.410156,4058.974365,4289.358887,4099.487305,4152.051270,4163.589844,4145.512695,4240.000000,4036.410156,4561.025879,4064.871826,0.000000,3.000000,,,,0.000000,4.000000,4.000000,4.000000,4.000000,4.000000,4.000000,4.000000,2.000000,4.000000,4.000000,4.000000,4.000000,4.000000,4.000000,83.333336,,,,,,,,,,,,,,,,,,,,,,,,,,,,,,,,,,,,,,,,,,,,,,,,,,,,,,,,,,,,,,,,,,,,,,
1605178929.673769,61.000000,0.000000,4180.897461,4222.948730,4148.077148,4074.615479,4057.564209,4292.051270,4094.230713,4153.717773,4154.743652,4171.666504,4219.743652,4053.333252,4539.102539,4080.512939,0.000000,3.000000,,,,0.000000,4.000000,4.000000,4.000000,4.000000,4.000000,4.000000,4.000000,2.000000,4.000000,4.000000,4.000000,4.000000,4.000000,4.000000,83.333336,,,,,,,,,,,,,,,,,,,,,,,,,,,,,,,,,,,,,,,,,,,,,,,,,,,,,,,,,,,,,,,,,,,,,,
1605178929.681751,62.000000,0.000000,4201.922852,4237.307617,4147.948730,4083.974365,4077.564209,4283.461426,4080.384521,4158.589844,4165.384766,4191.025879,4225.897461,4047.948730,4524.487305,4073.718018,0.000000,3.000000,,,,0.000000,4.000000,4.000000,4.000000,4.000000,4.000000,4.000000,4.000000,2.000000,4.000000,4.000000,4.000000,4.000000,4.000000,4.000000,83.333336,,,,,,,,,,,,,,,,,,,,,,,,,,,,,,,,,,,,,,,,,,,,,,,,,,,,,,,,,,,,,,,,,,,,,,
1605178929.689633,63.000000,0.000000,4180.000000,4226.538574,4138.846191,4073.333252,4066.666748,4301.282227,4085.384521,4152.948730,4165.512695,4155.256348,4193.846191,4029.871826,4483.589844,4054.230713,0.000000,3.000000,,,,0.000000,4.000000,4.000000,4.000000,4.000000,4.000000,4.000000,4.000000,2.000000,4.000000,4.000000,4.000000,4.000000,4.000000,4.000000,83.333336,,,,,,,,,,,,,,,,,,,,,,,,,,,,,,,,,,,,,,,,,,,,,,,,,,,,,,,,,,,,,,,,,,,,,,
1605178929.697615,64.000000,0.000000,4147.692383,4201.538574,4138.589844,4056.025635,4019.615479,4329.871582,4100.769043,4146.153809,4173.333496,4142.307617,4161.922852,4030.769287,4438.333496,4051.666748,1807.000000,3.000000,,,,0.000000,4.000000,4.000000,4.000000,4.000000,4.000000,4.000000,4.000000,2.000000,4.000000,4.000000,4.000000,4.000000,4.000000,4.000000,83.333336,,,,,,,,,,,,,,,,,,,,,,,,,,,,,,,,,,,,,,,,,,,,,,,,,,,,,,,,,,,,,,,,,,,,,,
1605178929.705497,65.000000,0.000000,4112.307617,4158.461426,4120.769043,4028.205078,4002.692383,4261.538574,4055.641113,4128.333496,4105.256348,4145.000000,4070.897461,4006.025635,4382.051270,4021.025635,3043.000000,3.000000,,,,0.000000,4.000000,4.000000,4.000000,4.000000,4.000000,4.000000,4.000000,2.000000,4.000000,4.000000,4.000000,4.000000,4.000000,4.000000,83.333336,,,,,,,,,,,,,,,,,,,,,,,,,,,,,,,,,,,,,,,,,,,,,,,,,,,,,,,,,,,,,,,,,,,,,,
1605178929.713479,66.000000,0.000000,4089.487061,4119.230957,4100.000000,4011.666748,3990.769287,4215.128418,4023.461426,4110.897461,4037.435791,4118.717773,3963.846191,3972.435791,4342.948730,3984.615479,3034.000000,3.000000,,,,0.000000,4.000000,4.000000,4.000000,4.000000,4.000000,4.000000,4.000000,2.000000,4.000000,4.000000,4.000000,4.000000,4.000000,4.000000,83.333336,71.526909,15.786904,7.684721,3.968951,4.676929,95.708435,20.796024,9.382027,2.634310,3.403613,10.106504,3.386722,2.003815,0.852414,1.382933,35.142311,12.095530,5.352679,1.297758,2.507575,59.505936,27.157507,11.576542,3.790179,3.846246,11.146058,3.482451,4.925245,6.946714,17.589069,18.671499,6.510630,3.276772,3.387836,8.224161,7.439138,1.887689,1.281019,0.644142,0.825497,49.042557,12.962746,9.509289,10.786078,28.692345,139.463715,33.010040,13.991528,10.454519,9.567801,401.860840,95.028191,51.375893,18.296976,24.973154,36.547981,8.288795,5.362600,2.021277,3.599435,47.384663,8.874151,6.755837,3.244984,3.880801,41.951485,8.234095,6.148977,2.013989,3.735331
1605178929.721361,67.000000,0.000000,4126.794922,4140.512695,4121.410156,4036.410156,3956.025635,4315.512695,4089.871826,4122.820313,4125.641113,4106.282227,4009.230713,4006.538574,4374.487305,4018.461426,3227.000000,3.000000,,,,0.000000,4.000000,4.000000,4.000000,4.000000,4.000000,4.000000,4.000000,2.000000,4.000000,4.000000,4.000000,4.000000,4.000000,4.000000,83.333336,,,,,,,,,,,,,,,,,,,,,,,,,,,,,,,,,,,,,,,,,,,,,,,,,,,,,,,,,,,,,,,,,,,,,,
1605178929.729343,68.000000,0.000000,4176.282227,4168.333496,4144.230957,4049.358887,3954.487061,4361.666504,4128.205078,4139.102539,4180.256348,4137.051270,4113.846191,4045.641113,4420.897461,4052.948730,3431.000000,3.000000,,,,0.000000,4.000000,4.000000,4.000000,4.000000,4.000000,4.000000,4.000000,2.000000,4.000000,4.000000,4.000000,4.000000,4.000000,4.000000,83.333336,,,,,,,,,,,,,,,,,,,,,,,,,,,,,,,,,,,,,,,,,,,,,,,,,,,,,,,,,,,,,,,,,,,,,,
1605178929.737325,69.000000,0.000000,4155.256348,4144.487305,4118.974121,4017.435791,3982.179443,4252.563965,4057.692383,4126.410156,4039.871826,4140.769043,4066.538574,4013.076904,4415.256348,4016.794922,2080.000000,3.000000,,,,0.000000,4.000000,4.000000,4.000000,4.000000,4.000000,4.000000,4.000000,2.000000,4.000000,4.000000,4.000000,4.000000,4.000000,4.000000,83.333336,,,,,,,,,,,,,,,,,,,,,,,,,,,,,,,,,,,,,,,,,,,,,,,,,,,,,,,,,,,,,,,,,,,,,,
1605178929.745207,70.000000,0.000000,4125.256348,4140.384766,4102.948730,4005.128174,3978.461426,4235.256348,4040.256348,4118.974121,3979.230713,4087.948730,3987.435791,3991.923096,4413.205078,3994.743652,1997.000000,3.000000,,,,0.000000,4.000000,4.000000,4.000000,4.000000,4.000000,4.000000,4.000000,2.000000,4.000000,4.000000,4.000000,4.000000,4.000000,4.000000,83.333336,,,,,,,,,,,,,,,,,,,,,,,,,,,,,,,,,,,,,,,,,,,,,,,,,,,,,,,,,,,,,,,,,,,,,,
1605178929.753089,71.000000,0.000000,4140.128418,4158.974121,4121.794922,4019.102539,3945.897461,4338.974121,4111.410156,4127.692383,4086.025635,4055.256348,4010.897461,4017.820557,4444.358887,4018.461426,977.000000,3.000000,,,,0.000000,4.000000,4.000000,4.000000,4.000000,4.000000,4.000000,4.000000,2.000000,4.000000,4.000000,4.000000,4.000000,4.000000,4.000000,83.333336,,,,,,,,,,,,,,,,,,,,,,,,,,,,,,,,,,,,,,,,,,,,,,,,,,,,,,,,,,,,,,,,,,,,,,
1605178929.760871,72.000000,0.000000,4165.128418,4150.769043,4130.384766,4018.718018,3947.179443,4346.666504,4106.025879,4130.384766,4108.846191,4095.128174,4051.025635,4032.307617,4465.384766,4028.076904,2972.000000,3.000000,,,,0.000000,4.000000,4.000000,4.000000,4.000000,4.000000,4.000000,4.000000,2.000000,4.000000,4.000000,4.000000,4.000000,4.000000,4.000000,83.333336,,,,,,,,,,,,,,,,,,,,,,,,,,,,,,,,,,,,,,,,,,,,,,,,,,,,,,,,,,,,,,,,,,,,,,
1605178929.768753,73.000000,0.000000,4180.897461,4145.512695,4123.205078,4017.179443,3992.307617,4289.230957,4021.410156,4126.922852,4024.487061,4123.974121,4040.128174,4025.769287,4454.743652,4016.281982,3720.000000,3.000000,,,,0.000000,4.000000,4.000000,4.000000,4.000000,4.000000,4.000000,4.000000,2.000000,4.000000,4.000000,4.000000,4.000000,4.000000,4.000000,83.333336,,,,,,,,,,,,,,,,,,,,,,,,,,,,,,,,,,,,,,,,,,,,,,,,,,,,,,,,,,,,,,,,,,,,,,
1605178929.776535,74.000000,0.000000,4195.769043,4158.717773,4126.282227,4027.820557,4004.615479,4332.179688,3996.794922,4127.692383,4018.461426,4091.153809,4037.051270,4030.897461,4440.384766,4021.410156,2620.000000,3.000000,,,,0.000000,4.000000,4.000000,4.000000,4.000000,4.000000,4.000000,4.000000,2.000000,4.000000,4.000000,4.000000,4.000000,4.000000,4.000000,83.333336,,,,,,,,,,,,,,,,,,,,,,,,,,,,,,,,,,,,,,,,,,,,,,,,,,,,,,,,,,,,,,,,,,,,,,
1605178929.784417,75.000000,0.000000,4187.179688,4143.461426,4125.897461,4017.564209,3949.615479,4407.820313,4010.000000,4125.128418,4056.923096,4049.230713,4027.051270,4031.923096,4427.436035,4022.051270,2762.000000,3.000000,,,,0.000000,4.000000,4.000000,4.000000,4.000000,4.000000,4.000000,4.000000,2.000000,4.000000,4.000000,4.000000,4.000000,4.000000,4.000000,83.333336,,,,,,,,,,,,,,,,,,,,,,,,,,,,,,,,,,,,,,,,,,,,,,,,,,,,,,,,,,,,,,,,,,,,,,
1605178929.792199,76.000000,0.000000,4155.000000,4111.282227,4103.461426,3990.641113,3932.051270,4375.641113,3956.923096,4108.205078,4011.281982,4019.102539,3953.333252,4004.487061,4390.641113,3990.769287,5673.000000,3.000000,,,,0.000000,4.000000,4.000000,4.000000,4.000000,4.000000,4.000000,4.000000,2.000000,4.000000,4.000000,4.000000,4.000000,4.000000,4.000000,83.333336,,,,,,,,,,,,,,,,,,,,,,,,,,,,,,,,,,,,,,,,,,,,,,,,,,,,,,,,,,,,,,,,,,,,,,
1605178929.800081,77.000000,0.000000,4159.358887,4123.077148,4103.333496,3999.358887,3980.897461,4367.436035,3928.333252,4105.769043,3979.102539,4028.205078,3932.307617,4001.538574,4365.897461,3983.974365,2653.000000,3.000000,,,,0.000000,4.000000,4.000000,4.000000,4.000000,4.000000,4.000000,4.000000,2.000000,4.000000,4.000000,4.000000,4.000000,4.000000,4.000000,83.333336,,,,,,,,,,,,,,,,,,,,,,,,,,,,,,,,,,,,,,,,,,,,,,,,,,,,,,,,,,,,,,,,,,,,,,
1605178929.807863,78.000000,0.000000,4211.794922,4174.615234,4137.051270,4049.230713,4018.846191,4457.051270,3982.435791,4132.948730,4054.743652,4104.871582,4068.589844,4051.025635,4395.256348,4033.461426,2620.000000,3.000000,,,,0.000000,4.000000,4.000000,4.000000,4.000000,4.000000,4.000000,4.000000,2.000000,4.000000,4.000000,4.000000,4.000000,4.000000,4.000000,83.333336,,,,,,,,,,,,,,,,,,,,,,,,,,,,,,,,,,,,,,,,,,,,,,,,,,,,,,,,,,,,,,,,,,,,,,
1605178929.815845,79.000000,0.000000,4214.358887,4160.512695,4135.256348,4046.410156,4006.794922,4468.461426,3991.153809,4138.333496,4075.897461,4112.436035,4102.692383,4051.923096,4379.871582,4033.718018,2762.000000,3.000000,,,,0.000000,4.000000,4.000000,4.000000,4.000000,4.000000,4.000000,4.000000,2.000000,4.000000,4.000000,4.000000,4.000000,4.000000,4.000000,83.333336,,,,,,,,,,,,,,,,,,,,,,,,,,,,,,,,,,,,,,,,,,,,,,,,,,,,,,,,,,,,,,,,,,,,,,
1605178929.823727,80.000000,0.000000,4190.897461,4113.974121,4114.102539,4008.076904,3991.281982,4440.128418,3972.179443,4121.794922,4039.871826,4051.153809,4002.948730,4020.897461,4320.000000,3999.487061,5673.000000,3.000000,,,,0.000000,4.000000,4.000000,4.000000,4.000000,4.000000,4.000000,4.000000,2.000000,4.000000,4.000000,4.000000,4.000000,4.000000,4.000000,83.333336,,,,,,,,,,,,,,,,,,,,,,,,,,,,,,,,,,,,,,,,,,,,,,,,,,,,,,,,,,,,,,,,,,,,,,
1605178929.831709,81.000000,0.000000,4202.051270,4128.461426,4122.307617,4010.256348,4008.974365,4449.230957,3976.666748,4125.384766,4060.641113,4053.718018,4012.820557,4037.307617,4309.871582,4013.846191,2653.000000,3.000000,,,,0.000000,4.000000,4.000000,4.000000,4.000000,4.000000,4.000000,4.000000,2.000000,4.000000,4.000000,4.000000,4.000000,4.000000,4.000000,83.333336,,,,,,,,,,,,,,,,,,,,,,,,,,,,,,,,,,,,,,,,,,,,,,,,,,,,,,,,,,,,,,,,,,,,,,
1605178929.839591,82.000000,0.000000,4205.384766,4156.410156,4124.743652,4032.435791,4042.179443,4418.589844,3957.179443,4127.563965,4054.743652,4087.564209,4052.179443,4048.205078,4309.743652,4023.461426,2620.000000,3.000000,,,,0.000000,4.000000,4.000000,4.000000,4.000000,4.000000,4.000000,4.000000,2.000000,4.000000,4.000000,4.000000,4.000000,4.000000,4.000000,83.333336,77.122765,17.123949,6.854521,3.948860,3.955257,94.196686,21.385180,7.086929,2.485786,3.067873,10.988830,3.889997,1.627638,0.861548,1.213830,44.380268,13.887263,4.785147,1.435539,2.174635,57.238297,22.806362,10.223962,3.282930,3.640094,11.704571,3.853334,4.376509,6.145897,14.918158,20.337881,6.404319,3.172665,3.035939,7.111416,8.337522,1.920699,1.110490,0.629097,0.722763,58.792137,14.367607,9.172194,9.799646,26.270384,171.850388,32.571285,11.383218,9.824071,8.285075,481.250824,105.456367,43.863052,17.776867,21.411482,41.932800,9.906709,4.441610,2.004823,3.214526,57.546387,9.507935,5.971840,3.172183,3.419258,49.166401,9.911201,5.081646,1.984234,3.273931
1605178929.847473,83.000000,0.000000,4198.205078,4151.794922,4121.922852,4038.333252,4040.128174,4417.820313,3958.846191,4119.487305,4025.000000,4079.743652,4027.307617,4036.794922,4285.641113,4011.794922,2762.000000,3.000000,,,,0.000000,4.000000,4.000000,4.000000,4.000000,4.000000,4.000000,4.000000,2.000000,4.000000,4.000000,4.000000,4.000000,4.000000,4.000000,83.333336,,,,,,,,,,,,,,,,,,,,,,,,,,,,,,,,,,,,,,,,,,,,,,,,,,,,,,,,,,,,,,,,,,,,,,
1605178929.855255,84.000000,0.000000,4218.846191,4156.922852,4138.974121,4047.307617,4034.487061,4490.512695,4008.205078,4129.615234,4073.974365,4109.743652,4087.435791,4061.666748,4292.563965,4036.025635,5673.000000,3.000000,,,,0.000000,4.000000,4.000000,4.000000,4.000000,4.000000,4.000000,4.000000,2.000000,4.000000,4.000000,4.000000,4.000000,4.000000,4.000000,83.333336,,,,,,,,,,,,,,,,,,,,,,,,,,,,,,,,,,,,,,,,,,,,,,,,,,,,,,,,,,,,,,,,,,,,,,
1605178929.863237,85.000000,0.000000,4200.641113,4151.666504,4133.333496,4041.281982,4043.846191,4468.974121,3993.846191,4134.615234,4096.538574,4126.153809,4113.717773,4061.923096,4282.179688,4035.256348,2653.000000,3.000000,,,,0.000000,4.000000,4.000000,4.000000,4.000000,4.000000,4.000000,4.000000,2.000000,4.000000,4.000000,4.000000,4.000000,4.000000,4.000000,83.333336,,,,,,,,,,,,,,,,,,,,,,,,,,,,,,,,,,,,,,,,,,,,,,,,,,,,,,,,,,,,,,,,,,,,,,
1605178929.871119,86.000000,0.000000,4177.051270,4141.794922,4115.256348,4028.076904,4038.205078,4415.769043,3961.025635,4124.358887,4061.666748,4078.461426,4030.000000,4032.948730,4242.692383,4005.641113,2620.000000,3.000000,,,,0.000000,4.000000,4.000000,4.000000,4.000000,4.000000,4.000000,4.000000,2.000000,4.000000,4.000000,4.000000,4.000000,4.000000,4.000000,83.333336,,,,,,,,,,,,,,,,,,,,,,,,,,,,,,,,,,,,,,,,,,,,,,,,,,,,,,,,,,,,,,,,,,,,,,
1605178929.879101,87.000000,0.000000,4214.358887,4147.179688,4127.948730,4027.307617,4027.820557,4467.051270,3997.948730,4126.025879,4077.051270,4063.076904,4034.743652,4042.307617,4237.948730,4012.948730,2762.000000,3.000000,,,,0.000000,4.000000,4.000000,4.000000,4.000000,4.000000,4.000000,4.000000,2.000000,4.000000,4.000000,4.000000,4.000000,4.000000,4.000000,83.333336,,,,,,,,,,,,,,,,,,,,,,,,,,,,,,,,,,,,,,,,,,,,,,,,,,,,,,,,,,,,,,,,,,,,,,
1605178929.887083,88.000000,0.000000,4226.666504,4135.128418,4125.000000,4013.718018,4030.000000,4487.307617,4011.281982,4126.410156,4091.153809,4070.000000,4057.179443,4044.358887,4238.846191,4012.307617,5673.000000,3.000000,,,,0.000000,4.000000,4.000000,4.000000,4.000000,4.000000,4.000000,4.000000,2.000000,4.000000,4.000000,4.000000,4.000000,4.000000,4.000000,83.333336,,,,,,,,,,,,,,,,,,,,,,,,,,,,,,,,,,,,,,,,,,,,,,,,,,,,,,,,,,,,,,,,,,,,,,
1605178929.894965,89.000000,0.000000,4203.333496,4134.230957,4110.512695,4014.230713,4047.692383,4443.333496,3988.846191,4121.282227,4070.256348,4085.000000,4033.589844,4031.666748,4239.230957,3998.718018,2653.000000,3.000000,,,,0.000000,4.000000,4.000000,4.000000,4.000000,4.000000,4.000000,4.000000,2.000000,4.000000,4.000000,4.000000,4.000000,4.000000,4.000000,83.333336,,,,,,,,,,,,,,,,,,,,,,,,,,,,,,,,,,,,,,,,,,,,,,,,,,,,,,,,,,,,,,,,,,,,,,
1605178929.902947,90.000000,0.000000,4216.922852,4167.820313,4128.589844,4049.487061,4074.230713,4455.128418,4003.846191,4133.846191,4091.666748,4140.512695,4111.922852,4060.000000,4282.820313,4029.102539,2620.000000,3.000000,,,,0.000000,4.000000,4.000000,4.000000,4.000000,4.000000,4.000000,4.000000,2.000000,4.000000,4.000000,4.000000,4.000000,4.000000,4.000000,83.333336,,,,,,,,,,,,,,,,,,,,,,,,,,,,,,,,,,,,,,,,,,,,,,,,,,,,,,,,,,,,,,,,,,,,,,
1605178929.910829,91.000000,0.000000,4223.333496,4155.769043,4131.025879,4046.153809,4083.461426,4469.102539,4005.641113,4141.025879,4095.512939,4162.436035,4168.589844,4067.948730,4304.487305,4034.487061,2762.000000,3.000000,,,,0.000000,4.000000,4.000000,4.000000,4.000000,4.000000,4.000000,4.000000,2.000000,4.000000,4.000000,4.000000,4.000000,4.000000,4.000000,83.333336,,,,,,,,,,,,,,,,,,,,,,,,,,,,,,,,,,,,,,,,,,,,,,,,,,,,,,,,,,,,,,,,,,,,,,
1605178929.918711,92.000000,0.000000,4150.384766,4112.436035,4104.871582,4007.307617,4053.974365,4446.666504,3989.358887,4128.717773,4066.794922,4112.563965,4070.512939,4030.769287,4272.820313,3992.179443,5673.000000,3.000000,,,,0.000000,4.000000,4.000000,4.000000,4.000000,4.000000,4.000000,4.000000,2.000000,4.000000,4.000000,4.000000,4.000000,4.000000,4.000000,83.333336,,,,,,,,,,,,,,,,,,,,,,,,,,,,,,,,,,,,,,,,,,,,,,,,,,,,,,,,,,,,,,,,,,,,,,
1605178929.926493,93.000000,0.000000,4075.769287,4143.077148,4121.025879,4031.538574,4034.743652,4465.000000,4022.564209,4136.666504,4109.230957,4152.307617,4090.384521,4054.102539,4301.282227,4016.410156,2653.000000,3.000000,,,,0.000000,4.000000,4.000000,4.000000,4.000000,4.000000,4.000000,4.000000,2.000000,4.000000,4.000000,4.000000,4.000000,4.000000,4.000000,83.333336,,,,,,,,,,,,,,,,,,,,,,,,,,,,,,,,,,,,,,,,,,,,,,,,,,,,,,,,,,,,,,,,,,,,,,
1605178929.934475,94.000000,0.000000,4065.128174,4185.769043,4149.871582,4073.846191,4034.230713,4491.794922,4053.974365,4157.436035,4148.717773,4252.051270,4242.436035,4105.769043,4368.205078,4067.307617,2620.000000,3.000000,,,,0.000000,4.000000,4.000000,4.000000,4.000000,4.000000,4.000000,4.000000,2.000000,4.000000,4.000000,4.000000,4.000000,4.000000,4.000000,83.333336,,,,,,,,,,,,,,,,,,,,,,,,,,,,,,,,,,,,,,,,,,,,,,,,,,,,,,,,,,,,,,,,,,,,,,
1605178929.942457,95.000000,0.000000,4078.718018,4158.846191,4133.974121,4049.358887,4013.846191,4472.692383,4037.051270,4153.461426,4126.410156,4230.384766,4249.871582,4093.461426,4367.307617,4049.743652,2762.000000,3.000000,,,,0.000000,4.000000,4.000000,4.000000,4.000000,4.000000,4.000000,4.000000,2.000000,4.000000,4.000000,4.000000,4.000000,4.000000,4.000000,83.333336,,,,,,,,,,,,,,,,,,,,,,,,,,,,,,,,,,,,,,,,,,,,,,,,,,,,,,,,,,,,,,,,,,,,,,
1605178929.950340,96.000000,0.000000,4083.718018,4114.871582,4112.948730,4002.820557,3992.692383,4441.666504,4013.718018,4137.051270,4101.025879,4148.717773,4150.512695,4057.051270,4332.051270,4012.564209,5673.000000,3.000000,,,,0.000000,4.000000,4.000000,4.000000,4.000000,4.000000,4.000000,4.000000,2.000000,4.000000,4.000000,4.000000,4.000000,4.000000,4.000000,83.333336,,,,,,,,,,,,,,,,,,,,,,,,,,,,,,,,,,,,,,,,,,,,,,,,,,,,,,,,,,,,,,,,,,,,,,
1605178929.958322,97.000000,0.000000,4119.487305,4133.333496,4122.692383,4017.820557,4020.897461,4457.436035,4029.358887,4140.000000,4119.487305,4148.461426,4158.974121,4067.051270,4347.692383,4026.794922,2653.000000,3.000000,,,,0.000000,4.000000,4.000000,4.000000,4.000000,4.000000,4.000000,4.000000,2.000000,4.000000,4.000000,4.000000,4.000000,4.000000,4.000000,83.333336,,,,,,,,,,,,,,,,,,,,,,,,,,,,,,,,,,,,,,,,,,,,,,,,,,,,,,,,,,,,,,,,,,,,,,
1605178929.966204,98.000000,0.000000,4165.128418,4159.615234,4128.717773,4055.128174,4050.256348,4472.436035,4045.641113,4150.384766,4142.179688,4172.179688,4214.615234,4078.333252,4376.538574,4041.025635,2620.000000,3.000000,,,,0.000000,4.000000,4.000000,4.000000,4.000000,4.000000,4.000000,4.000000,2.000000,4.000000,4.000000,4.000000,4.000000,4.000000,4.000000,83.333336,82.407921,17.179108,5.921345,3.984735,3.526036,93.459518,21.678486,5.320020,2.520560,2.812865,11.859307,4.065477,1.264475,0.907819,1.072548,53.659172,14.678616,4.454268,1.698986,1.893366,66.124641,20.238384,9.719437,3.054150,3.361833,13.074453,3.919342,3.875008,5.405807,12.329293,23.076082,6.206229,3.241408,2.764215,6.027120,9.439570,1.944238,0.945086,0.633037,0.633054,71.728676,15.207253,8.769917,8.969231,22.498819,201.263107,30.835045,9.041415,9.531930,7.301937,555.777832,108.934036,36.681290,17.660509,18.346054,46.754490,10.929056,3.653562,2.043236,2.880651,65.631874,10.330641,5.273502,3.157043,3.043118,55.643280,11.085262,4.142363,2.034477,2.896577
1605178929.974187,99.000000,0.000000,4171.922852,4130.256348,4117.820313,4048.846191,4042.948730,4439.102539,4024.487061,4144.871582,4111.410156,4162.307617,4194.615234,4060.897461,4389.871582,4025.897461,2762.000000,3.000000,,,,0.000000,4.000000,4.000000,4.000000,4.000000,4.000000,4.000000,4.000000,2.000000,4.000000,4.000000,4.000000,4.000000,4.000000,4.000000,83.333336,,,,,,,,,,,,,,,,,,,,,,,,,,,,,,,,,,,,,,,,,,,,,,,,,,,,,,,,,,,,,,,,,,,,,,
1605178929.982069,100.000000,0.000000,4194.102539,4112.179688,4121.922852,4035.000000,4044.871826,4442.051270,4023.333252,4145.128418,4098.077148,4173.077148,4198.461426,4068.461426,4436.025879,4034.230713,5673.000000,3.000000,,,,0.000000,4.000000,4.000000,4.000000,4.000000,4.000000,4.000000,4.000000,2.000000,4.000000,4.000000,4.000000,4.000000,4.000000,4.000000,83.333336,,,,,,,,,,,,,,,,,,,,,,,,,,,,,,,,,,,,,,,,,,,,,,,,,,,,,,,,,,,,,,,,,,,,,,
1605178929.990051,101.000000,0.000000,4233.589844,4143.333496,4131.922852,4050.256348,4063.205078,4488.589844,4057.692383,4160.000000,4159.615234,4189.487305,4263.205078,4091.153809,4492.820313,4057.564209,2653.000000,3.000000,,,,0.000000,4.000000,4.000000,4.000000,4.000000,4.000000,4.000000,4.000000,2.000000,4.000000,4.000000,4.000000,4.000000,4.000000,4.000000,83.333336,,,,,,,,,,,,,,,,,,,,,,,,,,,,,,,,,,,,,,,,,,,,,,,,,,,,,,,,,,,,,,,,,,,,,,
1605178929.997934,102.000000,0.000000,4207.051270,4152.436035,4123.205078,4048.974365,4055.384521,4477.307617,4058.333252,4162.948730,4168.461426,4166.538574,4248.846191,4074.615479,4511.282227,4044.102539,2620.000000,3.000000,,,,0.000000,4.000000,4.000000,4.000000,4.000000,4.000000,4.000000,4.000000,2.000000,4.000000,4.000000,4.000000,4.000000,4.000000,4.000000,83.333336,,,,,,,,,,,,,,,,,,,,,,,,,,,,,,,,,,,,,,,,,,,,,,,,,,,,,,,,,,,,,,,,,,,,,,
1605178930.005916,103.000000,0.000000,4157.563965,4121.538574,4106.025879,4020.512939,4042.948730,4432.051270,4030.000000,4148.333496,4094.358887,4117.307617,4155.641113,4044.102539,4514.743652,4014.230713,2762.000000,3.000000,,,,0.000000,4.000000,4.000000,4.000000,4.000000,4.000000,4.000000,4.000000,2.000000,4.000000,4.000000,4.000000,4.000000,4.000000,4.000000,83.333336,,,,,,,,,,,,,,,,,,,,,,,,,,,,,,,,,,,,,,,,,,,,,,,,,,,,,,,,,,,,,,,,,,,,,,
1605178930.013798,104.000000,0.000000,4151.538574,4105.256348,4099.230957,4008.846191,4026.538574,4432.820313,4031.538574,4138.461426,4086.666748,4067.051270,4105.128418,4036.538574,4523.589844,4004.615479,5673.000000,3.000000,,,,0.000000,4.000000,4.000000,4.000000,4.000000,4.000000,4.000000,4.000000,2.000000,4.000000,4.000000,4.000000,4.000000,4.000000,4.000000,83.333336,,,,,,,,,,,,,,,,,,,,,,,,,,,,,,,,,,,,,,,,,,,,,,,,,,,,,,,,,,,,,,,,,,,,,,
1605178930.021781,105.000000,0.000000,4155.128418,4109.615234,4101.666504,4020.000000,4020.256348,4441.282227,4042.051270,4136.410156,4100.384766,4057.051270,4102.436035,4033.461426,4536.410156,4001.666748,2653.000000,3.000000,,,,0.000000,4.000000,4.000000,4.000000,4.000000,4.000000,4.000000,4.000000,2.000000,4.000000,4.000000,4.000000,4.000000,4.000000,4.000000,83.333336,,,,,,,,,,,,,,,,,,,,,,,,,,,,,,,,,,,,,,,,,,,,,,,,,,,,,,,,,,,,,,,,,,,,,,
1605178930.029663,106.000000,0.000000,4130.256348,4087.051270,4090.384521,4004.358887,4026.025635,4421.282227,4030.000000,4125.897461,4037.179443,4046.794922,4048.333252,4007.179443,4522.436035,3977.692383,2620.000000,3.000000,,,,0.000000,4.000000,4.000000,4.000000,4.000000,4.000000,4.000000,4.000000,2.000000,4.000000,4.000000,4.000000,4.000000,4.000000,4.000000,83.333336,,,,,,,,,,,,,,,,,,,,,,,,,,,,,,,,,,,,,,,,,,,,,,,,,,,,,,,,,,,,,,,,,,,,,,
1605178930.037645,107.000000,0.000000,4122.692383,4069.102539,4082.948730,3983.205078,4011.025635,4431.410156,4035.769287,4119.615234,4025.000000,4025.000000,3999.230713,4001.410156,4500.641113,3971.923096,2762.000000,3.000000,,,,0.000000,4.000000,4.000000,4.000000,4.000000,4.000000,4.000000,4.000000,2.000000,4.000000,4.000000,4.000000,4.000000,4.000000,4.000000,83.333336,,,,,,,,,,,,,,,,,,,,,,,,,,,,,,,,,,,,,,,,,,,,,,,,,,,,,,,,,,,,,,,,,,,,,,
1605178930.045527,108.000000,0.000000,4140.641113,4082.307617,4091.281982,3995.769287,4000.641113,4444.615234,4050.769287,4125.128418,4074.615479,4041.794922,4048.205078,4024.743652,4516.410156,3992.820557,5673.000000,3.000000,,,,0.000000,4.000000,4.000000,4.000000,4.000000,4.000000,4.000000,4.000000,2.000000,4.000000,4.000000,4.000000,4.000000,4.000000,4.000000,83.333336,,,,,,,,,,,,,,,,,,,,,,,,,,,,,,,,,,,,,,,,,,,,,,,,,,,,,,,,,,,,,,,,,,,,,,
1605178930.053509,109.000000,0.000000,4124.743652,4081.025635,4087.564209,3997.564209,4007.692383,4425.641113,4044.743652,4126.025879,4072.820557,4062.692383,4078.718018,4020.897461,4538.974121,3989.743652,2653.000000,3.000000,,,,0.000000,4.000000,4.000000,4.000000,4.000000,4.000000,4.000000,4.000000,2.000000,4.000000,4.000000,4.000000,4.000000,4.000000,4.000000,83.333336,,,,,,,,,,,,,,,,,,,,,,,,,,,,,,,,,,,,,,,,,,,,,,,,,,,,,,,,,,,,,,,,,,,,,,
1605178930.061391,110.000000,0.000000,4096.410156,4067.948730,4075.769287,3982.564209,4019.102539,4409.743652,4036.025635,4118.589844,4050.512939,4077.820557,4045.256348,4001.153809,4536.153809,3972.564209,2620.000000,3.000000,,,,0.000000,4.000000,4.000000,4.000000,4.000000,4.000000,4.000000,4.000000,2.000000,4.000000,4.000000,4.000000,4.000000,4.000000,4.000000,83.333336,,,,,,,,,,,,,,,,,,,,,,,,,,,,,,,,,,,,,,,,,,,,,,,,,,,,,,,,,,,,,,,,,,,,,,
1605178930.069373,111.000000,0.000000,4105.769043,4078.846191,4083.205078,3996.923096,4039.743652,4411.153809,4045.000000,4118.205078,4064.743652,4124.871582,4043.461426,4011.666748,4540.128418,3981.410156,2762.000000,3.000000,,,,0.000000,4.000000,4.000000,4.000000,4.000000,4.000000,4.000000,4.000000,2.000000,4.000000,4.000000,4.000000,4.000000,4.000000,4.000000,83.333336,,,,,,,,,,,,,,,,,,,,,,,,,,,,,,,,,,,,,,,,,,,,,,,,,,,,,,,,,,,,,,,,,,,,,,
1605178930.077255,112.000000,0.000000,4132.179688,4108.205078,4099.743652,4032.051270,4068.333252,4418.333496,4059.615479,4126.666504,4098.589844,4197.563965,4116.922852,4044.615479,4582.948730,4013.974365,5673.000000,3.000000,,,,0.000000,4.000000,4.000000,4.000000,4.000000,4.000000,4.000000,4.000000,2.000000,4.000000,4.000000,4.000000,4.000000,4.000000,4.000000,83.333336,,,,,,,,,,,,,,,,,,,,,,,,,,,,,,,,,,,,,,,,,,,,,,,,,,,,,,,,,,,,,,,,,,,,,,
1605178930.085237,113.000000,0.000000,4121.410156,4097.820313,4094.743652,4025.769287,4062.564209,4426.922852,4067.307617,4122.563965,4108.461426,4209.230957,4132.051270,4042.179443,4602.051270,4014.615479,2653.000000,3.000000,,,,0.000000,4.000000,4.000000,4.000000,4.000000,4.000000,4.000000,4.000000,2.000000,4.000000,4.000000,4.000000,4.000000,4.000000,4.000000,83.333336,,,,,,,,,,,,,,,,,,,,,,,,,,,,,,,,,,,,,,,,,,,,,,,,,,,,,,,,,,,,,,,,,,,,,,
1605178930.093119,114.000000,0.000000,4118.205078,4086.281982,4095.256348,4018.589844,4061.153809,4456.282227,4098.589844,4119.871582,4111.282227,4211.538574,4102.179688,4033.205078,4598.461426,4006.538574,2620.000000,3.000000,,,,0.000000,4.000000,4.000000,4.000000,4.000000,4.000000,4.000000,4.000000,2.000000,4.000000,4.000000,4.000000,4.000000,4.000000,4.000000,83.333336,82.899643,16.065954,5.336864,4.161966,3.466342,97.001038,21.088860,4.471228,2.771194,2.720886,12.228277,3.841569,0.986769,0.999451,1.006302,59.912811,14.103657,4.427396,2.034087,1.770908,83.190331,17.749464,9.642157,3.033750,3.074740,15.867000,3.545119,3.516642,4.952517,10.446816,26.145266,6.178814,3.406908,2.647733,5.259214,10.646563,1.911286,0.806375,0.666931,0.581526,86.672165,14.992078,8.468665,8.425674,18.521341,222.733582,27.311722,7.252632,9.652255,6.742013,623.146484,103.246521,31.374063,18.295895,16.581814,49.165382,11.088490,3.194987,2.159626,2.720455,71.824379,11.569151,4.896842,3.258783,2.828572,59.089798,11.430276,3.584136,2.192799,2.738921
1605178930.101101,115.000000,0.000000,4132.692383,4099.358887,4105.256348,4030.384521,4076.153809,4440.769043,4107.307617,4128.077148,4119.615234,4254.487305,4118.589844,4045.769287,4611.153809,4017.435791,2762.000000,3.000000,,,,0.000000,4.000000,4.000000,4.000000,4.000000,4.000000,4.000000,4.000000,2.000000,4.000000,4.000000,4.000000,4.000000,4.000000,4.000000,83.333336,,,,,,,,,,,,,,,,,,,,,,,,,,,,,,,,,,,,,,,,,,,,,,,,,,,,,,,,,,,,,,,,,,,,,,
1605178930.108984,116.000000,0.000000,4133.205078,4102.436035,4098.846191,4032.820557,4065.641113,4381.794922,4071.281982,4127.820313,4117.179688,4285.897461,4146.538574,4053.846191,4633.589844,4025.384521,5673.000000,3.000000,,,,0.000000,4.000000,4.000000,4.000000,4.000000,4.000000,4.000000,4.000000,2.000000,4.000000,4.000000,4.000000,4.000000,4.000000,4.000000,83.333336,,,,,,,,,,,,,,,,,,,,,,,,,,,,,,,,,,,,,,,,,,,,,,,,,,,,,,,,,,,,,,,,,,,,,,
1605178930.116966,117.000000,0.000000,4145.384766,4104.871582,4103.589844,4044.358887,4050.000000,4408.333496,4083.333252,4128.589844,4135.128418,4304.743652,4175.000000,4062.179443,4666.153809,4033.589844,2653.000000,3.000000,,,,0.000000,4.000000,4.000000,4.000000,4.000000,4.000000,4.000000,4.000000,2.000000,4.000000,4.000000,4.000000,4.000000,4.000000,4.000000,83.333336,,,,,,,,,,,,,,,,,,,,,,,,,,,,,,,,,,,,,,,,,,,,,,,,,,,,,,,,,,,,,,,,,,,,,,
1605178930.124848,118.000000,0.000000,4154.487305,4113.974121,4113.461426,4057.051270,4055.128174,4445.128418,4116.794922,4131.153809,4167.436035,4329.102539,4182.436035,4069.743652,4688.077148,4037.948730,2620.000000,3.000000,,,,0.000000,4.000000,4.000000,4.000000,4.000000,4.000000,4.000000,4.000000,2.000000,4.000000,4.000000,4.000000,4.000000,4.000000,4.000000,83.333336,,,,,,,,,,,,,,,,,,,,,,,,,,,,,,,,,,,,,,,,,,,,,,,,,,,,,,,,,,,,,,,,,,,,,,
1605178930.132830,119.000000,0.000000,4117.692383,4091.538574,4092.692383,4036.153809,4041.025635,4380.384766,4088.205078,4114.871582,4120.256348,4316.794922,4094.615479,4043.974365,4667.820313,4008.076904,2762.000000,3.000000,,,,0.000000,4.000000,4.000000,4.000000,4.000000,4.000000,4.000000,4.000000,2.000000,4.000000,4.000000,4.000000,4.000000,4.000000,4.000000,83.333336,,,,,,,,,,,,,,,,,,,,,,,,,,,,,,,,,,,,,,,,,,,,,,,,,,,,,,,,,,,,,,,,,,,,,,
1605178930.140712,120.000000,0.000000,4105.384766,4076.153809,4081.538574,4027.051270,4017.179443,4362.563965,4079.615479,4103.205078,4097.051270,4297.563965,4022.692383,4032.051270,4665.256348,3993.846191,5673.000000,3.000000,,,,0.000000,4.000000,4.000000,4.000000,4.000000,4.000000,4.000000,4.000000,2.000000,4.000000,4.000000,4.000000,4.000000,4.000000,4.000000,83.333336,,,,,,,,,,,,,,,,,,,,,,,,,,,,,,,,,,,,,,,,,,,,,,,,,,,,,,,,,,,,,,,,,,,,,,
1605178930.148694,121.000000,0.000000,4157.307617,4113.461426,4114.615234,4061.153809,4030.769287,4443.461426,4130.000000,4131.282227,4199.871582,4368.077148,4136.025879,4075.256348,4733.846191,4037.820557,2653.000000,3.000000,,,,0.000000,4.000000,4.000000,4.000000,4.000000,4.000000,4.000000,4.000000,2.000000,4.000000,4.000000,4.000000,4.000000,4.000000,4.000000,83.333336,,,,,,,,,,,,,,,,,,,,,,,,,,,,,,,,,,,,,,,,,,,,,,,,,,,,,,,,,,,,,,,,,,,,,,
1605178930.156576,122.000000,0.000000,4147.307617,4111.282227,4115.256348,4057.051270,4042.179443,4464.102539,4155.000000,4151.025879,4219.102539,4421.025879,4246.410156,4079.743652,4766.025879,4038.718018,2620.000000,3.000000,,,,0.000000,4.000000,4.000000,4.000000,4.000000,4.000000,4.000000,4.000000,2.000000,4.000000,4.000000,4.000000,4.000000,4.000000,4.000000,83.333336,,,,,,,,,,,,,,,,,,,,,,,,,,,,,,,,,,,,,,,,,,,,,,,,,,,,,,,,,,,,,,,,,,,,,,
1605178930.164358,123.000000,0.000000,4058.718018,4038.589844,4067.820557,3992.435791,4015.384521,4387.692383,4119.615234,4130.897461,4113.974121,4338.077148,4137.820313,4010.384521,4707.051270,3960.769287,2762.000000,3.000000,,,,0.000000,4.000000,4.000000,4.000000,4.000000,4.000000,4.000000,4.000000,2.000000,4.000000,4.000000,4.000000,4.000000,4.000000,4.000000,83.333336,,,,,,,,,,,,,,,,,,,,,,,,,,,,,,,,,,,,,,,,,,,,,,,,,,,,,,,,,,,,,,,,,,,,,,
1605178930.172240,124.000000,0.000000,4047.051270,4035.000000,4062.435791,3989.102539,4015.384521,4344.615234,4082.435791,4119.615234,4110.384766,4300.641113,4061.538574,4000.384521,4711.282227,3947.948730,5673.000000,3.000000,,,,0.000000,4.000000,4.000000,4.000000,4.000000,4.000000,4.000000,4.000000,2.000000,4.000000,4.000000,4.000000,4.000000,4.000000,4.000000,83.333336,,,,,,,,,,,,,,,,,,,,,,,,,,,,,,,,,,,,,,,,,,,,,,,,,,,,,,,,,,,,,,,,,,,,,,
1605178930.180022,125.000000,0.000000,4098.974121,4088.718018,4091.666748,4040.641113,4035.256348,4374.615234,4087.435791,4133.589844,4167.563965,4375.128418,4170.897461,4054.487061,4795.512695,4001.410156,2653.000000,3.000000,,,,0.000000,4.000000,4.000000,4.000000,4.000000,4.000000,4.000000,4.000000,2.000000,4.000000,4.000000,4.000000,4.000000,4.000000,4.000000,83.333336,,,,,,,,,,,,,,,,,,,,,,,,,,,,,,,,,,,,,,,,,,,,,,,,,,,,,,,,,,,,,,,,,,,,,,
1605178930.187904,126.000000,0.000000,4100.128418,4080.897461,4088.333252,4042.307617,4023.205078,4407.948730,4110.256348,4137.179688,4148.333496,4392.179688,4216.025879,4054.615479,4823.077148,3996.153809,2620.000000,3.000000,,,,0.000000,4.000000,4.000000,4.000000,4.000000,4.000000,4.000000,4.000000,2.000000,4.000000,4.000000,4.000000,4.000000,4.000000,4.000000,83.333336,,,,,,,,,,,,,,,,,,,,,,,,,,,,,,,,,,,,,,,,,,,,,,,,,,,,,,,,,,,,,,,,,,,,,,
1605178930.195686,127.000000,0.000000,4069.871826,4040.769287,4070.128174,4013.718018,4011.153809,4386.666504,4098.974121,4124.871582,4128.333496,4358.077148,4140.769043,4021.538574,4813.846191,3957.820557,52.000000,3.000000,,,,0.000000,4.000000,4.000000,4.000000,4.000000,4.000000,4.000000,4.000000,2.000000,4.000000,4.000000,4.000000,4.000000,4.000000,4.000000,83.333336,,,,,,,,,,,,,,,,,,,,,,,,,,,,,,,,,,,,,,,,,,,,,,,,,,,,,,,,,,,,,,,,,,,,,,
1605178930.203568,0.000000,0.000000,4054.230713,4034.871826,4064.230713,4007.435791,4022.435791,4355.641113,4072.820557,4117.179688,4114.230957,4362.563965,4100.000000,4019.615479,4836.025879,3952.948730,1794.000000,3.000000,,,,0.000000,4.000000,4.000000,4.000000,4.000000,4.000000,4.000000,4.000000,2.000000,4.000000,4.000000,4.000000,4.000000,4.000000,4.000000,83.333336,,,,,,,,,,,,,,,,,,,,,,,,,,,,,,,,,,,,,,,,,,,,,,,,,,,,,,,,,,,,,,,,,,,,,,
1605178930.211350,1.000000,0.000000,4052.820557,4046.666748,4070.384521,4014.743652,4023.974365,4388.205078,4101.025879,4122.179688,4131.153809,4376.922852,4137.051270,4039.230713,4867.436035,3967.435791,3028.000000,3.000000,,,,0.000000,4.000000,4.000000,4.000000,4.000000,4.000000,4.000000,4.000000,2.000000,4.000000,4.000000,4.000000,4.000000,4.000000,4.000000,83.333336,,,,,,,,,,,,,,,,,,,,,,,,,,,,,,,,,,,,,,,,,,,,,,,,,,,,,,,,,,,,,,,,,,,,,,
1605178930.219232,2.000000,0.000000,4057.051270,4040.384521,4073.718018,4014.615479,4025.897461,4388.717773,4115.128418,4128.333496,4157.436035,4385.384766,4163.461426,4043.718018,4879.358887,3966.025635,2993.000000,3.000000,,,,0.000000,4.000000,4.000000,4.000000,4.000000,4.000000,4.000000,4.000000,2.000000,4.000000,4.000000,4.000000,4.000000,4.000000,4.000000,83.333336,80.551598,14.786695,5.631734,4.505770,3.681182,101.702682,19.442846,4.351305,3.188328,2.811956,12.307800,3.338254,0.811232,1.120837,1.032095,62.210918,12.371803,4.548855,2.375605,1.856104,101.858864,14.916121,9.559945,3.074386,2.841493,19.663494,2.861156,3.321739,4.810775,9.564041,29.003838,6.687263,3.544185,2.679139,4.947742,11.436348,1.863449,0.718571,0.728025,0.576577,100.306992,13.873099,8.237511,8.091335,15.428480,231.837372,22.633226,6.176509,10.087605,6.608873,648.041443,90.812592,28.659807,19.732813,16.354706,49.060829,10.515037,3.063144,2.343351,2.778567,75.368904,13.701519,4.971848,3.493583,2.779826,58.940212,11.023108,3.431134,2.441275,2.842574
1605178930.227014,3.000000,0.000000,4049.230713,4037.051270,4068.076904,4017.820557,4072.435791,4351.410156,4090.641113,4126.794922,4093.589844,4404.102539,4156.153809,4038.333252,4888.846191,3958.076904,3217.000000,3.000000,,,,0.000000,4.000000,4.000000,4.000000,4.000000,4.000000,4.000000,4.000000,2.000000,4.000000,4.000000,4.000000,4.000000,4.000000,4.000000,83.333336,,,,,,,,,,,,,,,,,,,,,,,,,,,,,,,,,,,,,,,,,,,,,,,,,,,,,,,,,,,,,,,,,,,,,,
1605178930.234996,4.000000,0.000000,4032.564209,4045.512939,4067.435791,4023.974365,4095.897461,4368.589844,4101.025879,4120.000000,4055.384521,4394.615234,4141.922852,4043.333252,4900.641113,3960.641113,3401.000000,3.000000,,,,0.000000,4.000000,4.000000,4.000000,4.000000,4.000000,4.000000,4.000000,2.000000,4.000000,4.000000,4.000000,4.000000,4.000000,4.000000,83.333336,,,,,,,,,,,,,,,,,,,,,,,,,,,,,,,,,,,,,,,,,,,,,,,,,,,,,,,,,,,,,,,,,,,,,,
1605178930.242878,5.000000,0.000000,4084.615479,4089.871826,4099.358887,4064.871826,4082.948730,4418.461426,4141.153809,4133.077148,4177.307617,4437.820313,4221.025879,4091.923096,4954.615234,4007.179443,2056.000000,3.000000,,,,0.000000,4.000000,4.000000,4.000000,4.000000,4.000000,4.000000,4.000000,2.000000,4.000000,4.000000,4.000000,4.000000,4.000000,4.000000,83.333336,,,,,,,,,,,,,,,,,,,,,,,,,,,,,,,,,,,,,,,,,,,,,,,,,,,,,,,,,,,,,,,,,,,,,,
1605178930.250860,6.000000,0.000000,4159.871582,4152.692383,4141.282227,4118.205078,4106.153809,4441.410156,4162.820313,4164.743652,4266.282227,4544.487305,4388.846191,4152.820313,5031.153809,4069.487061,1989.000000,3.000000,,,,0.000000,4.000000,4.000000,4.000000,4.000000,4.000000,4.000000,4.000000,2.000000,4.000000,4.000000,4.000000,4.000000,4.000000,4.000000,83.333336,,,,,,,,,,,,,,,,,,,,,,,,,,,,,,,,,,,,,,,,,,,,,,,,,,,,,,,,,,,,,,,,,,,,,,
1605178930.258842,7.000000,0.000000,4186.794922,4178.077148,4148.077148,4131.282227,4173.205078,4420.641113,4149.358887,4178.717773,4225.897461,4542.179688,4477.820313,4163.461426,5051.666504,4080.128174,940.000000,3.000000,,,,0.000000,4.000000,4.000000,4.000000,4.000000,4.000000,4.000000,4.000000,2.000000,4.000000,4.000000,4.000000,4.000000,4.000000,4.000000,83.333336,,,,,,,,,,,,,,,,,,,,,,,,,,,,,,,,,,,,,,,,,,,,,,,,,,,,,,,,,,,,,,,,,,,,,,
1605178930.266725,8.000000,0.000000,4189.487305,4171.025879,4141.282227,4126.025879,4203.205078,4376.538574,4114.743652,4177.948730,4201.153809,4443.589844,4483.077148,4153.846191,5032.563965,4067.948730,2958.000000,3.000000,,,,0.000000,4.000000,4.000000,4.000000,4.000000,4.000000,4.000000,4.000000,2.000000,4.000000,4.000000,4.000000,4.000000,4.000000,4.000000,83.333336,,,,,,,,,,,,,,,,,,,,,,,,,,,,,,,,,,,,,,,,,,,,,,,,,,,,,,,,,,,,,,,,,,,,,,
1605178930.274707,9.000000,0.000000,4187.820313,4195.000000,4156.025879,4149.615234,4190.897461,4374.743652,4108.717773,4192.051270,4220.512695,4426.794922,4568.717773,4190.256348,5050.128418,4107.179688,3722.000000,3.000000,,,,0.000000,4.000000,4.000000,4.000000,4.000000,4.000000,4.000000,4.000000,2.000000,4.000000,4.000000,4.000000,4.000000,4.000000,4.000000,83.333336,,,,,,,,,,,,,,,,,,,,,,,,,,,,,,,,,,,,,,,,,,,,,,,,,,,,,,,,,,,,,,,,,,,,,,
1605178930.282589,10.000000,0.000000,4181.282227,4210.897461,4164.102539,4157.692383,4183.205078,4396.282227,4123.077148,4202.692383,4197.948730,4424.102539,4646.794922,4203.589844,5061.538574,4122.179688,2573.000000,3.000000,,,,0.000000,4.000000,4.000000,4.000000,4.000000,4.000000,4.000000,4.000000,2.000000,4.000000,4.000000,4.000000,4.000000,4.000000,4.000000,83.333336,,,,,,,,,,,,,,,,,,,,,,,,,,,,,,,,,,,,,,,,,,,,,,,,,,,,,,,,,,,,,,,,,,,,,,
1605178930.290571,11.000000,0.000000,4187.820313,4181.153809,4144.230957,4129.102539,4189.615234,4340.000000,4086.923096,4187.051270,4136.666504,4346.922852,4583.205078,4161.410156,5014.358887,4073.846191,2748.000000,3.000000,,,,0.000000,4.000000,4.000000,4.000000,4.000000,4.000000,4.000000,4.000000,2.000000,4.000000,4.000000,4.000000,4.000000,4.000000,4.000000,83.333336,,,,,,,,,,,,,,,,,,,,,,,,,,,,,,,,,,,,,,,,,,,,,,,,,,,,,,,,,,,,,,,,,,,,,,
1605178930.298454,12.000000,0.000000,4186.025879,4166.922852,4133.205078,4115.897461,4177.436035,4295.897461,4056.281982,4176.153809,4123.846191,4283.077148,4518.589844,4146.538574,4962.563965,4055.384521,5627.000000,3.000000,,,,0.000000,4.000000,4.000000,4.000000,4.000000,4.000000,4.000000,4.000000,2.000000,4.000000,4.000000,4.000000,4.000000,4.000000,4.000000,83.333336,,,,,,,,,,,,,,,,,,,,,,,,,,,,,,,,,,,,,,,,,,,,,,,,,,,,,,,,,,,,,,,,,,,,,,
1605178930.306436,13.000000,0.000000,4158.974121,4176.153809,4138.589844,4118.717773,4152.179688,4367.563965,4112.563965,4180.256348,4165.000000,4250.769043,4515.000000,4159.743652,4941.153809,4071.923096,2639.000000,3.000000,,,,0.000000,4.000000,4.000000,4.000000,4.000000,4.000000,4.000000,4.000000,2.000000,4.000000,4.000000,4.000000,4.000000,4.000000,4.000000,83.333336,,,,,,,,,,,,,,,,,,,,,,,,,,,,,,,,,,,,,,,,,,,,,,,,,,,,,,,,,,,,,,,,,,,,,,
1605178930.314318,14.000000,0.000000,4157.563965,4176.153809,4138.846191,4113.333496,4158.589844,4393.589844,4141.538574,4180.641113,4163.846191,4228.974121,4484.102539,4149.487305,4926.153809,4061.923096,2573.000000,3.000000,,,,0.000000,4.000000,4.000000,4.000000,4.000000,4.000000,4.000000,4.000000,2.000000,4.000000,4.000000,4.000000,4.000000,4.000000,4.000000,83.333336,,,,,,,,,,,,,,,,,,,,,,,,,,,,,,,,,,,,,,,,,,,,,,,,,,,,,,,,,,,,,,,,,,,,,,
1605178930.322301,15.000000,0.000000,4168.461426,4179.743652,4134.230957,4113.205078,4175.256348,4312.948730,4085.512939,4174.102539,4124.230957,4225.128418,4446.153809,4138.461426,4909.615234,4050.128174,2748.000000,3.000000,,,,0.000000,4.000000,4.000000,4.000000,4.000000,4.000000,4.000000,4.000000,2.000000,4.000000,4.000000,4.000000,4.000000,4.000000,4.000000,83.333336,,,,,,,,,,,,,,,,,,,,,,,,,,,,,,,,,,,,,,,,,,,,,,,,,,,,,,,,,,,,,,,,,,,,,,
1605178930.330183,16.000000,0.000000,4134.743652,4165.000000,4119.743652,4103.974121,4152.436035,4263.461426,4045.512939,4159.871582,4082.435791,4194.615234,4411.794922,4125.512695,4883.846191,4035.512939,0.000000,3.000000,,,,0.000000,4.000000,4.000000,4.000000,4.000000,4.000000,4.000000,4.000000,2.000000,4.000000,4.000000,4.000000,4.000000,4.000000,4.000000,83.333336,,,,,,,,,,,,,,,,,,,,,,,,,,,,,,,,,,,,,,,,,,,,,,,,,,,,,,,,,,,,,,,,,,,,,,
1605178930.338165,17.000000,0.000000,4073.718018,4110.641113,4095.384521,4075.256348,4125.641113,4265.897461,4050.000000,4144.230957,4025.769287,4121.410156,4309.487305,4084.487061,4833.717773,3991.025635,0.000000,3.000000,,,,0.000000,4.000000,4.000000,4.000000,4.000000,4.000000,4.000000,4.000000,2.000000,4.000000,4.000000,4.000000,4.000000,4.000000,4.000000,83.333336,,,,,,,,,,,,,,,,,,,,,,,,,,,,,,,,,,,,,,,,,,,,,,,,,,,,,,,,,,,,,,,,,,,,,,
1605178930.346048,18.000000,0.000000,4072.179443,4111.538574,4102.563965,4087.564209,4145.512695,4289.230957,4079.487061,4151.410156,4044.743652,4089.487061,4291.282227,4093.718018,4817.563965,4002.564209,0.000000,3.000000,,,,0.000000,4.000000,4.000000,4.000000,4.000000,4.000000,4.000000,4.000000,2.000000,4.000000,4.000000,4.000000,4.000000,4.000000,4.000000,83.333336,74.183769,14.764466,7.066543,4.966297,3.984876,106.234489,17.022354,4.455025,3.653820,3.045670,11.642027,2.743255,0.713089,1.238400,1.132719,58.823490,10.016620,4.581615,2.663403,2.123321,116.810051,12.315850,9.255418,3.034878,2.692466,23.820305,2.151907,3.217021,4.836756,9.586532,30.395832,7.903775,3.562002,2.786645,5.045350,11.671129,1.853660,0.674938,0.799523,0.608267,110.187241,12.410065,7.955215,7.786048,13.798491,229.401016,18.124987,6.011523,10.657918,6.779885,629.244873,76.640381,27.721308,21.652937,17.346144,45.239582,9.474231,3.113177,2.552669,3.010029,78.661720,16.982687,5.500596,3.818864,2.853185,53.921764,10.093088,3.515053,2.718696,3.146088
1605178930.354030,19.000000,0.000000,4129.743652,4171.282227,4135.256348,4123.846191,4175.256348,4322.692383,4110.897461,4172.051270,4143.717773,4127.563965,4409.487305,4145.769043,4843.205078,4057.820557,0.000000,3.000000,,,,0.000000,4.000000,4.000000,4.000000,4.000000,4.000000,4.000000,4.000000,2.000000,4.000000,4.000000,4.000000,4.000000,4.000000,4.000000,83.333336,,,,,,,,,,,,,,,,,,,,,,,,,,,,,,,,,,,,,,,,,,,,,,,,,,,,,,,,,,,,,,,,,,,,,,
1605178930.361912,20.000000,0.000000,4140.897461,4185.128418,4143.333496,4126.025879,4184.102539,4329.615234,4121.282227,4176.153809,4167.179688,4172.563965,4473.717773,4152.179688,4837.692383,4062.051270,0.000000,3.000000,,,,0.000000,4.000000,4.000000,4.000000,4.000000,4.000000,4.000000,4.000000,2.000000,4.000000,4.000000,4.000000,4.000000,4.000000,4.000000,83.333336,,,,,,,,,,,,,,,,,,,,,,,,,,,,,,,,,,,,,,,,,,,,,,,,,,,,,,,,,,,,,,,,,,,,,,
1605178930.369894,21.000000,0.000000,4086.666748,4157.563965,4128.974121,4116.025879,4192.692383,4321.153809,4129.615234,4168.717773,4100.128418,4152.436035,4433.717773,4128.461426,4790.256348,4036.923096,0.000000,3.000000,,,,0.000000,4.000000,4.000000,4.000000,4.000000,4.000000,4.000000,4.000000,2.000000,4.000000,4.000000,4.000000,4.000000,4.000000,4.000000,83.333336,,,,,,,,,,,,,,,,,,,,,,,,,,,,,,,,,,,,,,,,,,,,,,,,,,,,,,,,,,,,,,,,,,,,,,
1605178930.377776,22.000000,0.000000,4070.769287,4154.230957,4124.358887,4115.128418,4209.743652,4327.051270,4149.230957,4169.871582,4079.358887,4109.487305,4401.282227,4118.717773,4754.615234,4030.769287,0.000000,3.000000,,,,0.000000,4.000000,4.000000,4.000000,4.000000,4.000000,4.000000,4.000000,2.000000,4.000000,4.000000,4.000000,4.000000,4.000000,4.000000,83.333336,,,,,,,,,,,,,,,,,,,,,,,,,,,,,,,,,,,,,,,,,,,,,,,,,,,,,,,,,,,,,,,,,,,,,,
1605178930.385758,23.000000,0.000000,4091.410156,4162.436035,4133.589844,4117.179688,4204.358887,4323.717773,4148.846191,4171.538574,4131.538574,4104.871582,4407.563965,4123.333496,4741.153809,4036.923096,0.000000,3.000000,,,,0.000000,4.000000,4.000000,4.000000,4.000000,4.000000,4.000000,4.000000,2.000000,4.000000,4.000000,4.000000,4.000000,4.000000,4.000000,83.333336,,,,,,,,,,,,,,,,,,,,,,,,,,,,,,,,,,,,,,,,,,,,,,,,,,,,,,,,,,,,,,,,,,,,,,
1605178930.393640,24.000000,0.000000,4105.128418,4181.666504,4151.538574,4142.436035,4215.256348,4314.487305,4140.769043,4174.615234,4173.077148,4142.948730,4470.512695,4152.307617,4746.410156,4067.948730,0.000000,3.000000,,,,0.000000,4.000000,4.000000,4.000000,4.000000,4.000000,4.000000,4.000000,2.000000,4.000000,4.000000,4.000000,4.000000,4.000000,4.000000,83.333336,,,,,,,,,,,,,,,,,,,,,,,,,,,,,,,,,,,,,,,,,,,,,,,,,,,,,,,,,,,,,,,,,,,,,,
1605178930.401622,25.000000,0.000000,4113.461426,4198.589844,4160.256348,4157.692383,4256.153809,4318.717773,4148.077148,4183.077148,4147.692383,4146.025879,4531.922852,4169.743652,4735.512695,4091.410156,0.000000,3.000000,,,,0.000000,4.000000,4.000000,4.000000,4.000000,4.000000,4.000000,4.000000,2.000000,4.000000,4.000000,4.000000,4.000000,4.000000,4.000000,83.333336,,,,,,,,,,,,,,,,,,,,,,,,,,,,,,,,,,,,,,,,,,,,,,,,,,,,,,,,,,,,,,,,,,,,,,
1605178930.409504,26.000000,0.000000,4100.512695,4185.256348,4149.102539,4136.282227,4276.025879,4318.461426,4156.538574,4181.025879,4110.000000,4102.563965,4496.025879,4151.538574,4680.897461,4076.281982,0.000000,3.000000,,,,0.000000,4.000000,4.000000,4.000000,4.000000,4.000000,4.000000,4.000000,2.000000,4.000000,4.000000,4.000000,4.000000,4.000000,4.000000,83.333336,,,,,,,,,,,,,,,,,,,,,,,,,,,,,,,,,,,,,,,,,,,,,,,,,,,,,,,,,,,,,,,,,,,,,,
1605178930.417486,27.000000,0.000000,4086.410156,4176.282227,4151.538574,4136.922852,4268.461426,4316.025879,4163.205078,4172.948730,4113.846191,4096.538574,4451.025879,4152.692383,4632.563965,4077.435791,0.000000,3.000000,,,,0.000000,4.000000,4.000000,4.000000,4.000000,4.000000,4.000000,4.000000,2.000000,4.000000,4.000000,4.000000,4.000000,4.000000,4.000000,83.333336,,,,,,,,,,,,,,,,,,,,,,,,,,,,,,,,,,,,,,,,,,,,,,,,,,,,,,,,,,,,,,,,,,,,,,
1605178930.425368,28.000000,0.000000,4126.282227,4206.794922,4174.743652,4182.051270,4279.743652,4333.589844,4177.307617,4182.179688,4156.922852,4151.922852,4512.436035,4190.769043,4631.153809,4116.666504,0.000000,3.000000,,,,0.000000,4.000000,4.000000,4.000000,4.000000,4.000000,4.000000,4.000000,2.000000,4.000000,4.000000,4.000000,4.000000,4.000000,4.000000,83.333336,,,,,,,,,,,,,,,,,,,,,,,,,,,,,,,,,,,,,,,,,,,,,,,,,,,,,,,,,,,,,,,,,,,,,,
1605178930.433350,29.000000,0.000000,4145.128418,4210.769043,4178.205078,4185.000000,4270.897461,4358.717773,4195.897461,4190.769043,4183.974121,4175.384766,4558.205078,4193.717773,4613.333496,4122.820313,0.000000,3.000000,,,,0.000000,4.000000,4.000000,4.000000,4.000000,4.000000,4.000000,4.000000,2.000000,4.000000,4.000000,4.000000,4.000000,4.000000,4.000000,83.333336,,,,,,,,,,,,,,,,,,,,,,,,,,,,,,,,,,,,,,,,,,,,,,,,,,,,,,,,,,,,,,,,,,,,,,
1605178930.441232,30.000000,0.000000,4103.077148,4193.205078,4164.230957,4153.589844,4235.128418,4366.410156,4212.307617,4182.692383,4176.794922,4151.282227,4516.538574,4166.794922,4555.641113,4100.000000,0.000000,3.000000,,,,0.000000,4.000000,4.000000,4.000000,4.000000,4.000000,4.000000,4.000000,2.000000,4.000000,4.000000,4.000000,4.000000,4.000000,4.000000,83.333336,,,,,,,,,,,,,,,,,,,,,,,,,,,,,,,,,,,,,,,,,,,,,,,,,,,,,,,,,,,,,,,,,,,,,,
1605178930.449215,31.000000,0.000000,4102.820313,4227.563965,4176.282227,4170.512695,4257.948730,4343.205078,4212.820313,4181.282227,4168.333496,4176.153809,4511.410156,4174.487305,4521.153809,4110.641113,0.000000,3.000000,,,,0.000000,4.000000,4.000000,4.000000,4.000000,4.000000,4.000000,4.000000,2.000000,4.000000,4.000000,4.000000,4.000000,4.000000,4.000000,83.333336,,,,,,,,,,,,,,,,,,,,,,,,,,,,,,,,,,,,,,,,,,,,,,,,,,,,,,,,,,,,,,,,,,,,,,
1605178930.457097,32.000000,0.000000,4153.974121,4283.846191,4205.384766,4224.230957,4312.948730,4352.948730,4228.589844,4197.436035,4197.563965,4243.205078,4611.153809,4219.102539,4534.487305,4156.282227,0.000000,3.000000,,,,0.000000,4.000000,4.000000,4.000000,4.000000,4.000000,4.000000,4.000000,2.000000,4.000000,4.000000,4.000000,4.000000,4.000000,4.000000,83.333336,,,,,,,,,,,,,,,,,,,,,,,,,,,,,,,,,,,,,,,,,,,,,,,,,,,,,,,,,,,,,,,,,,,,,,
1605178930.464879,33.000000,0.000000,4161.282227,4278.717773,4209.102539,4230.769043,4302.692383,4397.948730,4261.410156,4207.948730,4236.794922,4246.410156,4685.128418,4234.615234,4522.051270,4174.230957,0.000000,3.000000,,,,0.000000,4.000000,4.000000,4.000000,4.000000,4.000000,4.000000,4.000000,2.000000,4.000000,4.000000,4.000000,4.000000,4.000000,4.000000,83.333336,,,,,,,,,,,,,,,,,,,,,,,,,,,,,,,,,,,,,,,,,,,,,,,,,,,,,,,,,,,,,,,,,,,,,,
1605178930.472761,34.000000,0.000000,4141.410156,4239.743652,4191.153809,4199.743652,4247.820313,4394.230957,4261.025879,4202.948730,4251.538574,4189.743652,4640.384766,4206.025879,4473.333496,4149.230957,0.000000,3.000000,,,,0.000000,4.000000,4.000000,4.000000,4.000000,4.000000,4.000000,4.000000,2.000000,4.000000,4.000000,4.000000,4.000000,4.000000,4.000000,83.333336,66.566505,16.773539,9.336689,5.417235,4.239636,105.218521,14.373216,4.323729,4.011796,3.362401,10.542993,2.230790,0.642526,1.311276,1.274179,50.858006,7.653674,4.301035,2.846562,2.498086,123.481270,10.663302,8.634210,2.854665,2.618266,26.786592,1.675531,3.095459,4.856471,10.188227,30.554544,9.573059,3.428222,2.888135,5.381085,11.085566,1.910409,0.645342,0.858231,0.658470,113.370529,11.205946,7.471501,7.413062,13.540115,219.774567,15.173475,6.650240,11.143307,7.109058,559.567749,65.193336,26.847469,23.404022,19.035957,38.595051,8.238538,3.120611,2.715061,3.326144,83.818573,21.273832,6.328286,4.126291,3.014177,45.460846,8.888789,3.558530,2.929699,3.540632
1605178930.480543,35.000000,0.000000,4126.410156,4219.871582,4174.871582,4185.000000,4231.153809,4347.820313,4229.102539,4192.563965,4207.820313,4164.230957,4574.230957,4180.000000,4451.153809,4123.846191,0.000000,3.000000,,,,0.000000,4.000000,4.000000,4.000000,4.000000,4.000000,4.000000,4.000000,2.000000,4.000000,4.000000,4.000000,4.000000,4.000000,4.000000,83.333336,,,,,,,,,,,,,,,,,,,,,,,,,,,,,,,,,,,,,,,,,,,,,,,,,,,,,,,,,,,,,,,,,,,,,,
1605178930.488425,36.000000,0.000000,4107.307617,4205.384766,4166.666504,4176.922852,4243.846191,4334.743652,4218.717773,4182.563965,4132.436035,4162.051270,4541.922852,4167.563965,4438.077148,4115.256348,0.000000,3.000000,,,,0.000000,4.000000,4.000000,4.000000,4.000000,4.000000,4.000000,4.000000,2.000000,4.000000,4.000000,4.000000,4.000000,4.000000,4.000000,83.333336,,,,,,,,,,,,,,,,,,,,,,,,,,,,,,,,,,,,,,,,,,,,,,,,,,,,,,,,,,,,,,,,,,,,,,
1605178930.496207,37.000000,0.000000,4120.897461,4203.846191,4170.128418,4177.820313,4249.487305,4356.666504,4235.128418,4177.948730,4151.922852,4136.538574,4513.461426,4165.256348,4394.487305,4119.487305,0.000000,3.000000,,,,0.000000,4.000000,4.000000,4.000000,4.000000,4.000000,4.000000,4.000000,2.000000,4.000000,4.000000,4.000000,4.000000,4.000000,4.000000,83.333336,,,,,,,,,,,,,,,,,,,,,,,,,,,,,,,,,,,,,,,,,,,,,,,,,,,,,,,,,,,,,,,,,,,,,,
1605178930.504089,38.000000,0.000000,4145.256348,4213.205078,4178.205078,4186.922852,4249.230957,4358.077148,4239.230957,4181.538574,4223.974121,4126.410156,4500.256348,4175.769043,4353.974121,4132.948730,0.000000,3.000000,,,,0.000000,4.000000,4.000000,4.000000,4.000000,4.000000,4.000000,4.000000,2.000000,4.000000,4.000000,4.000000,4.000000,4.000000,4.000000,83.333336,,,,,,,,,,,,,,,,,,,,,,,,,,,,,,,,,,,,,,,,,,,,,,,,,,,,,,,,,,,,,,,,,,,,,,
1605178930.511871,39.000000,0.000000,4142.307617,4205.000000,4175.769043,4178.333496,4244.743652,4346.538574,4232.820313,4182.948730,4226.153809,4144.615234,4516.410156,4180.000000,4339.615234,4139.743652,0.000000,3.000000,,,,0.000000,4.000000,4.000000,4.000000,4.000000,4.000000,4.000000,4.000000,2.000000,4.000000,4.000000,4.000000,4.000000,4.000000,4.000000,83.333336,,,,,,,,,,,,,,,,,,,,,,,,,,,,,,,,,,,,,,,,,,,,,,,,,,,,,,,,,,,,,,,,,,,,,,
1605178930.519753,40.000000,0.000000,4138.589844,4185.256348,4168.846191,4156.153809,4230.256348,4348.717773,4236.153809,4177.436035,4190.769043,4126.153809,4496.025879,4166.922852,4309.743652,4130.641113,0.000000,3.000000,,,,0.000000,4.000000,4.000000,4.000000,4.000000,4.000000,4.000000,4.000000,2.000000,4.000000,4.000000,4.000000,4.000000,4.000000,4.000000,83.333336,,,,,,,,,,,,,,,,,,,,,,,,,,,,,,,,,,,,,,,,,,,,,,,,,,,,,,,,,,,,,,,,,,,,,,
1605178930.527535,41.000000,0.000000,4175.256348,4191.922852,4178.333496,4170.384766,4247.436035,4364.487305,4252.307617,4183.589844,4206.922852,4121.153809,4499.871582,4172.692383,4283.461426,4140.256348,0.000000,3.000000,,,,0.000000,4.000000,4.000000,4.000000,4.000000,4.000000,4.000000,4.000000,2.000000,4.000000,4.000000,4.000000,4.000000,4.000000,4.000000,83.333336,,,,,,,,,,,,,,,,,,,,,,,,,,,,,,,,,,,,,,,,,,,,,,,,,,,,,,,,,,,,,,,,,,,,,,
1605178930.535517,42.000000,0.000000,4204.743652,4193.461426,4183.589844,4185.769043,4271.282227,4360.769043,4253.461426,4193.589844,4209.743652,4139.871582,4535.512695,4177.051270,4263.974121,4146.666504,0.000000,3.000000,,,,0.000000,4.000000,4.000000,4.000000,4.000000,4.000000,4.000000,4.000000,2.000000,4.000000,4.000000,4.000000,4.000000,4.000000,4.000000,83.333336,,,,,,,,,,,,,,,,,,,,,,,,,,,,,,,,,,,,,,,,,,,,,,,,,,,,,,,,,,,,,,,,,,,,,,
1605178930.543499,43.000000,0.000000,4209.871582,4172.820313,4172.051270,4170.128418,4261.153809,4336.025879,4239.871582,4183.974121,4156.282227,4132.051270,4507.051270,4161.794922,4230.000000,4135.512695,0.000000,3.000000,,,,0.000000,4.000000,4.000000,4.000000,4.000000,4.000000,4.000000,4.000000,2.000000,4.000000,4.000000,4.000000,4.000000,4.000000,4.000000,83.333336,,,,,,,,,,,,,,,,,,,,,,,,,,,,,,,,,,,,,,,,,,,,,,,,,,,,,,,,,,,,,,,,,,,,,,
1605178930.551382,44.000000,0.000000,4226.922852,4158.205078,4168.974121,4158.333496,4245.641113,4326.538574,4234.487305,4176.794922,4128.461426,4111.666504,4453.461426,4156.410156,4192.179688,4136.666504,0.000000,3.000000,,,,0.000000,4.000000,4.000000,4.000000,4.000000,4.000000,4.000000,4.000000,2.000000,4.000000,4.000000,4.000000,4.000000,4.000000,4.000000,83.333336,,,,,,,,,,,,,,,,,,,,,,,,,,,,,,,,,,,,,,,,,,,,,,,,,,,,,,,,,,,,,,,,,,,,,,
