title:club, start timestamp:1605176516.924479, stop timestamp:1605176577.571304, headset type:EPOCPLUS, headset serial:3B9AEC95, headset firmware:625, channels:108, sampling rate:eeg_128;pow_8, samples:7698      , version:2.0
Timestamp,EEG.Counter,EEG.Interpolated,EEG.AF3,EEG.F7,EEG.F3,EEG.FC5,EEG.T7,EEG.P7,EEG.O1,EEG.O2,EEG.P8,EEG.T8,EEG.FC6,EEG.F4,EEG.F8,EEG.AF4,EEG.RawCq,EEG.Battery,MarkerIndex,MarkerType,MarkerValueInt,EEG.MarkerHardware,CQ.AF3,CQ.F7,CQ.F3,CQ.FC5,CQ.T7,CQ.P7,CQ.O1,CQ.O2,CQ.P8,CQ.T8,CQ.FC6,CQ.F4,CQ.F8,CQ.AF4,CQ.Overall,POW.AF3.Theta,POW.AF3.Alpha,POW.AF3.BetaL,POW.AF3.BetaH,POW.AF3.Gamma,POW.F7.Theta,POW.F7.Alpha,POW.F7.BetaL,POW.F7.BetaH,POW.F7.Gamma,POW.F3.Theta,POW.F3.Alpha,POW.F3.BetaL,POW.F3.BetaH,POW.F3.Gamma,POW.FC5.Theta,POW.FC5.Alpha,POW.FC5.BetaL,POW.FC5.BetaH,POW.FC5.Gamma,POW.T7.Theta,POW.T7.Alpha,POW.T7.BetaL,POW.T7.BetaH,POW.T7.Gamma,POW.P7.Theta,POW.P7.Alpha,POW.P7.BetaL,POW.P7.BetaH,POW.P7.Gamma,POW.O1.Theta,POW.O1.Alpha,POW.O1.BetaL,POW.O1.BetaH,POW.O1.Gamma,POW.O2.Theta,POW.O2.Alpha,POW.O2.BetaL,POW.O2.BetaH,POW.O2.Gamma,POW.P8.Theta,POW.P8.Alpha,POW.P8.BetaL,POW.P8.BetaH,POW.P8.Gamma,POW.T8.Theta,POW.T8.Alpha,POW.T8.BetaL,POW.T8.BetaH,POW.T8.Gamma,POW.FC6.Theta,POW.FC6.Alpha,POW.FC6.BetaL,POW.FC6.BetaH,POW.FC6.Gamma,POW.F4.Theta,POW.F4.Alpha,POW.F4.BetaL,POW.F4.BetaH,POW.F4.Gamma,POW.F8.Theta,POW.F8.Alpha,POW.F8.BetaL,POW.F8.BetaH,POW.F8.Gamma,POW.AF4.Theta,POW.AF4.Alpha,POW.AF4.BetaL,POW.AF4.BetaH,POW.AF4.Gamma
1605176516.924479,80.000000,0.000000,4218.589844,4231.282227,4218.077148,4227.563965,4197.051270,4212.051270,4222.820313,4218.589844,4183.589844,4273.589844,4167.948730,4165.897461,4234.487305,4179.871582,2175.000000,4.000000,,,,0.000000,4.000000,4.000000,4.000000,4.000000,4.000000,4.000000,4.000000,4.000000,4.000000,4.000000,4.000000,4.000000,4.000000,4.000000,100.000000,,,,,,,,,,,,,,,,,,,,,,,,,,,,,,,,,,,,,,,,,,,,,,,,,,,,,,,,,,,,,,,,,,,,,,
1605176516.932460,81.000000,0.000000,4226.282227,4241.282227,4222.051270,4238.589844,4197.307617,4216.025879,4228.846191,4224.487305,4185.641113,4275.128418,4175.256348,4167.692383,4239.871582,4180.897461,2344.000000,4.000000,,,,0.000000,4.000000,4.000000,4.000000,4.000000,4.000000,4.000000,4.000000,4.000000,4.000000,4.000000,4.000000,4.000000,4.000000,4.000000,100.000000,,,,,,,,,,,,,,,,,,,,,,,,,,,,,,,,,,,,,,,,,,,,,,,,,,,,,,,,,,,,,,,,,,,,,,
1605176516.940342,82.000000,0.000000,4220.512695,4231.025879,4215.384766,4229.358887,4195.128418,4204.615234,4221.282227,4218.077148,4187.692383,4274.743652,4177.563965,4166.666504,4230.641113,4174.487305,3363.000000,4.000000,,,,0.000000,4.000000,4.000000,4.000000,4.000000,4.000000,4.000000,4.000000,4.000000,4.000000,4.000000,4.000000,4.000000,4.000000,4.000000,100.000000,,,,,,,,,,,,,,,,,,,,,,,,,,,,,,,,,,,,,,,,,,,,,,,,,,,,,,,,,,,,,,,,,,,,,,
1605176516.948324,83.000000,0.000000,4208.717773,4215.769043,4206.282227,4207.692383,4196.025879,4196.794922,4210.897461,4212.179688,4184.230957,4267.179688,4173.077148,4164.743652,4218.333496,4170.641113,2829.000000,4.000000,,,,0.000000,4.000000,4.000000,4.000000,4.000000,4.000000,4.000000,4.000000,4.000000,4.000000,4.000000,4.000000,4.000000,4.000000,4.000000,100.000000,,,,,,,,,,,,,,,,,,,,,,,,,,,,,,,,,,,,,,,,,,,,,,,,,,,,,,,,,,,,,,,,,,,,,,
1605176516.956206,84.000000,0.000000,4213.333496,4217.820313,4208.717773,4206.153809,4195.384766,4203.077148,4218.846191,4225.000000,4183.461426,4262.436035,4177.051270,4168.974121,4223.333496,4175.769043,2175.000000,4.000000,,,,0.000000,4.000000,4.000000,4.000000,4.000000,4.000000,4.000000,4.000000,4.000000,4.000000,4.000000,4.000000,4.000000,4.000000,4.000000,100.000000,,,,,,,,,,,,,,,,,,,,,,,,,,,,,,,,,,,,,,,,,,,,,,,,,,,,,,,,,,,,,,,,,,,,,,
1605176516.964188,85.000000,0.000000,4224.358887,4225.897461,4214.230957,4220.897461,4189.743652,4209.358887,4227.051270,4230.384766,4190.000000,4274.743652,4182.948730,4169.871582,4230.256348,4177.307617,2344.000000,4.000000,,,,0.000000,4.000000,4.000000,4.000000,4.000000,4.000000,4.000000,4.000000,4.000000,4.000000,4.000000,4.000000,4.000000,4.000000,4.000000,100.000000,,,,,,,,,,,,,,,,,,,,,,,,,,,,,,,,,,,,,,,,,,,,,,,,,,,,,,,,,,,,,,,,,,,,,,
1605176516.972070,86.000000,0.000000,4227.692383,4232.307617,4219.871582,4233.333496,4185.769043,4205.256348,4223.205078,4223.205078,4192.307617,4283.846191,4186.153809,4170.256348,4233.205078,4177.436035,3363.000000,4.000000,,,,0.000000,4.000000,4.000000,4.000000,4.000000,4.000000,4.000000,4.000000,4.000000,4.000000,4.000000,4.000000,4.000000,4.000000,4.000000,100.000000,,,,,,,,,,,,,,,,,,,,,,,,,,,,,,,,,,,,,,,,,,,,,,,,,,,,,,,,,,,,,,,,,,,,,,
1605176516.979852,87.000000,0.000000,4226.794922,4236.025879,4225.512695,4237.051270,4189.102539,4196.282227,4223.717773,4225.000000,4188.974121,4277.948730,4187.436035,4170.512695,4232.179688,4180.256348,2829.000000,4.000000,,,,0.000000,4.000000,4.000000,4.000000,4.000000,4.000000,4.000000,4.000000,4.000000,4.000000,4.000000,4.000000,4.000000,4.000000,4.000000,100.000000,,,,,,,,,,,,,,,,,,,,,,,,,,,,,,,,,,,,,,,,,,,,,,,,,,,,,,,,,,,,,,,,,,,,,,
1605176516.987733,88.000000,0.000000,4221.153809,4227.563965,4216.025879,4225.256348,4197.179688,4200.256348,4224.230957,4222.179688,4186.410156,4270.769043,4184.487305,4163.461426,4221.794922,4176.153809,2175.000000,4.000000,,,,0.000000,4.000000,4.000000,4.000000,4.000000,4.000000,4.000000,4.000000,4.000000,4.000000,4.000000,4.000000,4.000000,4.000000,4.000000,100.000000,1.033562,0.553777,0.867236,0.457222,0.512605,1.516952,0.846804,1.705336,0.765522,0.878451,1.073612,0.465662,0.982390,0.541353,0.891540,0.581936,0.578987,1.572913,1.267442,1.717990,0.338036,0.115226,0.078322,0.131846,0.087554,0.723323,0.258736,0.327144,0.484415,0.841377,1.994541,0.840331,1.133132,0.848905,1.311812,1.984065,0.903139,1.248285,0.584895,0.777265,0.490739,0.084455,0.253492,0.123440,0.118179,5.823340,1.081650,3.447857,1.585201,1.651655,1.435665,0.346826,0.793333,0.335616,0.438011,1.585198,0.576321,0.412112,0.263691,0.363393,2.574658,0.803673,0.942548,0.555809,0.707836,1.421353,0.806623,0.569219,0.301049,0.429016
1605176516.995515,89.000000,0.000000,4217.051270,4223.717773,4204.871582,4212.820313,4202.948730,4207.820313,4216.666504,4209.743652,4185.128418,4265.897461,4182.692383,4160.641113,4220.641113,4173.077148,2344.000000,4.000000,,,,0.000000,4.000000,4.000000,4.000000,4.000000,4.000000,4.000000,4.000000,4.000000,4.000000,4.000000,4.000000,4.000000,4.000000,4.000000,100.000000,,,,,,,,,,,,,,,,,,,,,,,,,,,,,,,,,,,,,,,,,,,,,,,,,,,,,,,,,,,,,,,,,,,,,,
1605176517.003397,90.000000,0.000000,4220.897461,4228.333496,4206.922852,4213.717773,4199.230957,4202.820313,4213.077148,4206.794922,4183.461426,4251.282227,4179.358887,4166.410156,4226.666504,4179.743652,3363.000000,4.000000,,,,0.000000,4.000000,4.000000,4.000000,4.000000,4.000000,4.000000,4.000000,4.000000,4.000000,4.000000,4.000000,4.000000,4.000000,4.000000,100.000000,,,,,,,,,,,,,,,,,,,,,,,,,,,,,,,,,,,,,,,,,,,,,,,,,,,,,,,,,,,,,,,,,,,,,,
1605176517.011179,91.000000,0.000000,4223.077148,4227.051270,4208.205078,4214.743652,4190.641113,4200.128418,4215.512695,4210.256348,4184.230957,4243.077148,4172.436035,4168.205078,4224.358887,4183.589844,2829.000000,4.000000,,,,0.000000,4.000000,4.000000,4.000000,4.000000,4.000000,4.000000,4.000000,4.000000,4.000000,4.000000,4.000000,4.000000,4.000000,4.000000,100.000000,,,,,,,,,,,,,,,,,,,,,,,,,,,,,,,,,,,,,,,,,,,,,,,,,,,,,,,,,,,,,,,,,,,,,,
1605176517.019061,92.000000,0.000000,4219.358887,4227.820313,4208.974121,4216.410156,4190.256348,4205.128418,4211.794922,4206.922852,4186.410156,4259.358887,4178.974121,4164.230957,4221.794922,4180.000000,2175.000000,4.000000,,,,0.000000,4.000000,4.000000,4.000000,4.000000,4.000000,4.000000,4.000000,4.000000,4.000000,4.000000,4.000000,4.000000,4.000000,4.000000,100.000000,,,,,,,,,,,,,,,,,,,,,,,,,,,,,,,,,,,,,,,,,,,,,,,,,,,,,,,,,,,,,,,,,,,,,,
1605176517.026842,93.000000,0.000000,4220.897461,4234.230957,4216.922852,4226.025879,4194.102539,4197.820313,4205.769043,4202.307617,4185.000000,4266.794922,4187.820313,4161.794922,4220.897461,4177.436035,2344.000000,4.000000,,,,0.000000,4.000000,4.000000,4.000000,4.000000,4.000000,4.000000,4.000000,4.000000,4.000000,4.000000,4.000000,4.000000,4.000000,4.000000,100.000000,,,,,,,,,,,,,,,,,,,,,,,,,,,,,,,,,,,,,,,,,,,,,,,,,,,,,,,,,,,,,,,,,,,,,,
1605176517.034724,94.000000,0.000000,4225.512695,4235.128418,4221.153809,4235.384766,4195.769043,4187.820313,4204.615234,4203.717773,4182.179688,4250.512695,4177.051270,4162.820313,4216.538574,4178.461426,3363.000000,4.000000,,,,0.000000,4.000000,4.000000,4.000000,4.000000,4.000000,4.000000,4.000000,4.000000,4.000000,4.000000,4.000000,4.000000,4.000000,4.000000,100.000000,,,,,,,,,,,,,,,,,,,,,,,,,,,,,,,,,,,,,,,,,,,,,,,,,,,,,,,,,,,,,,,,,,,,,,
1605176517.042506,95.000000,0.000000,4224.615234,4234.487305,4219.871582,4234.230957,4196.025879,4195.897461,4209.871582,4212.179688,4184.615234,4249.743652,4173.717773,4167.307617,4220.897461,4180.769043,2829.000000,4.000000,,,,0.000000,4.000000,4.000000,4.000000,4.000000,4.000000,4.000000,4.000000,4.000000,4.000000,4.000000,4.000000,4.000000,4.000000,4.000000,100.000000,,,,,,,,,,,,,,,,,,,,,,,,,,,,,,,,,,,,,,,,,,,,,,,,,,,,,,,,,,,,,,,,,,,,,,
1605176517.050387,96.000000,0.000000,4222.307617,4231.282227,4217.436035,4220.128418,4195.641113,4205.256348,4215.512695,4216.025879,4185.512695,4257.436035,4182.820313,4169.230957,4223.589844,4180.512695,2175.000000,4.000000,,,,0.000000,4.000000,4.000000,4.000000,4.000000,4.000000,4.000000,4.000000,4.000000,4.000000,4.000000,4.000000,4.000000,4.000000,4.000000,100.000000,,,,,,,,,,,,,,,,,,,,,,,,,,,,,,,,,,,,,,,,,,,,,,,,,,,,,,,,,,,,,,,,,,,,,,
1605176517.058169,97.000000,0.000000,4218.077148,4223.333496,4213.846191,4215.512695,4196.282227,4203.974121,4214.743652,4206.410156,4176.538574,4242.307617,4176.410156,4167.051270,4213.974121,4179.615234,2344.000000,4.000000,,,,0.000000,4.000000,4.000000,4.000000,4.000000,4.000000,4.000000,4.000000,4.000000,4.000000,4.000000,4.000000,4.000000,4.000000,4.000000,100.000000,,,,,,,,,,,,,,,,,,,,,,,,,,,,,,,,,,,,,,,,,,,,,,,,,,,,,,,,,,,,,,,,,,,,,,
1605176517.066051,98.000000,0.000000,4212.179688,4220.641113,4214.358887,4224.102539,4199.358887,4195.769043,4211.538574,4200.000000,4172.692383,4223.846191,4169.102539,4165.641113,4208.717773,4180.512695,3363.000000,4.000000,,,,0.000000,4.000000,4.000000,4.000000,4.000000,4.000000,4.000000,4.000000,4.000000,4.000000,4.000000,4.000000,4.000000,4.000000,4.000000,100.000000,,,,,,,,,,,,,,,,,,,,,,,,,,,,,,,,,,,,,,,,,,,,,,,,,,,,,,,,,,,,,,,,,,,,,,
1605176517.073833,99.000000,0.000000,4223.461426,4231.922852,4223.717773,4235.256348,4201.282227,4203.205078,4226.025879,4213.974121,4183.589844,4244.102539,4181.538574,4171.666504,4218.333496,4189.487305,2829.000000,4.000000,,,,0.000000,4.000000,4.000000,4.000000,4.000000,4.000000,4.000000,4.000000,4.000000,4.000000,4.000000,4.000000,4.000000,4.000000,4.000000,100.000000,,,,,,,,,,,,,,,,,,,,,,,,,,,,,,,,,,,,,,,,,,,,,,,,,,,,,,,,,,,,,,,,,,,,,,
1605176517.081714,100.000000,0.000000,4231.025879,4235.000000,4224.487305,4234.358887,4200.641113,4215.000000,4235.512695,4221.282227,4191.922852,4268.974121,4191.282227,4176.410156,4223.974121,4195.000000,2175.000000,4.000000,,,,0.000000,4.000000,4.000000,4.000000,4.000000,4.000000,4.000000,4.000000,4.000000,4.000000,4.000000,4.000000,4.000000,4.000000,4.000000,100.000000,,,,,,,,,,,,,,,,,,,,,,,,,,,,,,,,,,,,,,,,,,,,,,,,,,,,,,,,,,,,,,,,,,,,,,
1605176517.089496,101.000000,0.000000,4211.538574,4220.128418,4211.410156,4216.410156,4200.897461,4199.102539,4211.794922,4204.871582,4187.820313,4254.743652,4186.153809,4173.077148,4213.077148,4186.282227,2344.000000,4.000000,,,,0.000000,4.000000,4.000000,4.000000,4.000000,4.000000,4.000000,4.000000,4.000000,4.000000,4.000000,4.000000,4.000000,4.000000,4.000000,100.000000,,,,,,,,,,,,,,,,,,,,,,,,,,,,,,,,,,,,,,,,,,,,,,,,,,,,,,,,,,,,,,,,,,,,,,
1605176517.097377,102.000000,0.000000,4203.846191,4209.487305,4206.153809,4203.333496,4199.743652,4179.487305,4192.051270,4189.615234,4183.717773,4235.769043,4181.666504,4171.794922,4201.666504,4180.769043,3363.000000,4.000000,,,,0.000000,4.000000,4.000000,4.000000,4.000000,4.000000,4.000000,4.000000,4.000000,4.000000,4.000000,4.000000,4.000000,4.000000,4.000000,100.000000,,,,,,,,,,,,,,,,,,,,,,,,,,,,,,,,,,,,,,,,,,,,,,,,,,,,,,,,,,,,,,,,,,,,,,
1605176517.105159,103.000000,0.000000,4225.384766,4222.436035,4218.205078,4221.282227,4199.615234,4190.128418,4206.794922,4192.820313,4184.871582,4243.077148,4185.512695,4178.333496,4207.436035,4192.179688,2829.000000,4.000000,,,,0.000000,4.000000,4.000000,4.000000,4.000000,4.000000,4.000000,4.000000,4.000000,4.000000,4.000000,4.000000,4.000000,4.000000,4.000000,100.000000,,,,,,,,,,,,,,,,,,,,,,,,,,,,,,,,,,,,,,,,,,,,,,,,,,,,,,,,,,,,,,,,,,,,,,
1605176517.113040,104.000000,0.000000,4234.743652,4230.512695,4224.615234,4234.102539,4198.205078,4212.436035,4221.410156,4202.179688,4185.897461,4251.922852,4188.333496,4181.538574,4217.820313,4198.589844,2175.000000,4.000000,,,,0.000000,4.000000,4.000000,4.000000,4.000000,4.000000,4.000000,4.000000,4.000000,4.000000,4.000000,4.000000,4.000000,4.000000,4.000000,100.000000,1.023710,0.483305,0.773560,0.440439,0.498080,1.172214,0.639921,1.268025,0.750511,0.811079,1.033872,0.352668,0.800027,0.513776,0.802260,0.549632,0.559013,1.355441,1.232113,1.587389,0.352792,0.100152,0.083274,0.136832,0.096754,0.633737,0.291223,0.279285,0.453305,0.772945,1.769826,0.914061,1.166676,0.711731,1.172704,1.552122,1.083498,1.418987,0.516199,0.706128,0.418422,0.125620,0.217136,0.121461,0.111800,4.768117,1.380219,3.047213,1.412506,1.513066,1.289902,0.502599,0.666281,0.307361,0.405069,1.261589,0.590138,0.369812,0.229814,0.333089,1.712955,0.791372,0.869912,0.485704,0.662167,1.036513,0.804283,0.507725,0.250113,0.384758
1605176517.120822,105.000000,0.000000,4218.077148,4209.102539,4209.615234,4207.820313,4198.974121,4209.743652,4206.666504,4195.256348,4186.538574,4242.179688,4184.743652,4175.384766,4209.743652,4191.153809,2344.000000,4.000000,,,,0.000000,4.000000,4.000000,4.000000,4.000000,4.000000,4.000000,4.000000,4.000000,4.000000,4.000000,4.000000,4.000000,4.000000,4.000000,100.000000,,,,,,,,,,,,,,,,,,,,,,,,,,,,,,,,,,,,,,,,,,,,,,,,,,,,,,,,,,,,,,,,,,,,,,
1605176517.128804,106.000000,0.000000,4212.051270,4197.692383,4199.358887,4188.846191,4203.205078,4194.102539,4190.384766,4182.179688,4185.256348,4233.333496,4182.179688,4173.333496,4199.487305,4189.230957,3363.000000,4.000000,,,,0.000000,4.000000,4.000000,4.000000,4.000000,4.000000,4.000000,4.000000,4.000000,4.000000,4.000000,4.000000,4.000000,4.000000,4.000000,100.000000,,,,,,,,,,,,,,,,,,,,,,,,,,,,,,,,,,,,,,,,,,,,,,,,,,,,,,,,,,,,,,,,,,,,,,
1605176517.136686,107.000000,0.000000,4218.461426,4206.282227,4201.666504,4194.743652,4199.230957,4195.128418,4190.897461,4180.897461,4181.153809,4223.717773,4182.692383,4174.871582,4199.102539,4188.974121,2829.000000,4.000000,,,,0.000000,4.000000,4.000000,4.000000,4.000000,4.000000,4.000000,4.000000,4.000000,4.000000,4.000000,4.000000,4.000000,4.000000,4.000000,100.000000,,,,,,,,,,,,,,,,,,,,,,,,,,,,,,,,,,,,,,,,,,,,,,,,,,,,,,,,,,,,,,,,,,,,,,
1605176517.144468,108.000000,0.000000,4214.358887,4203.974121,4196.666504,4197.820313,4193.589844,4193.974121,4186.410156,4179.871582,4180.128418,4210.128418,4175.769043,4175.128418,4196.922852,4179.487305,2175.000000,4.000000,,,,0.000000,4.000000,4.000000,4.000000,4.000000,4.000000,4.000000,4.000000,4.000000,4.000000,4.000000,4.000000,4.000000,4.000000,4.000000,100.000000,,,,,,,,,,,,,,,,,,,,,,,,,,,,,,,,,,,,,,,,,,,,,,,,,,,,,,,,,,,,,,,,,,,,,,
1605176517.152350,109.000000,0.000000,4206.025879,4191.410156,4187.948730,4190.000000,4191.538574,4176.282227,4169.615234,4163.717773,4178.846191,4196.794922,4167.692383,4176.282227,4188.589844,4174.615234,2344.000000,4.000000,,,,0.000000,4.000000,4.000000,4.000000,4.000000,4.000000,4.000000,4.000000,4.000000,4.000000,4.000000,4.000000,4.000000,4.000000,4.000000,100.000000,,,,,,,,,,,,,,,,,,,,,,,,,,,,,,,,,,,,,,,,,,,,,,,,,,,,,,,,,,,,,,,,,,,,,,
1605176517.160131,110.000000,0.000000,4215.384766,4198.077148,4199.358887,4196.025879,4187.692383,4176.794922,4171.153809,4161.666504,4178.717773,4196.282227,4170.384766,4180.384766,4195.000000,4187.692383,3363.000000,4.000000,,,,0.000000,4.000000,4.000000,4.000000,4.000000,4.000000,4.000000,4.000000,4.000000,4.000000,4.000000,4.000000,4.000000,4.000000,4.000000,100.000000,,,,,,,,,,,,,,,,,,,,,,,,,,,,,,,,,,,,,,,,,,,,,,,,,,,,,,,,,,,,,,,,,,,,,,
1605176517.168113,111.000000,0.000000,4226.410156,4203.589844,4215.897461,4212.692383,4186.922852,4192.436035,4187.051270,4170.897461,4180.897461,4204.743652,4174.102539,4183.333496,4206.025879,4197.436035,2829.000000,4.000000,,,,0.000000,4.000000,4.000000,4.000000,4.000000,4.000000,4.000000,4.000000,4.000000,4.000000,4.000000,4.000000,4.000000,4.000000,4.000000,100.000000,,,,,,,,,,,,,,,,,,,,,,,,,,,,,,,,,,,,,,,,,,,,,,,,,,,,,,,,,,,,,,,,,,,,,,
1605176517.175995,112.000000,0.000000,4210.512695,4182.692383,4200.128418,4197.692383,4191.666504,4182.179688,4177.051270,4156.538574,4176.153809,4188.333496,4164.743652,4175.000000,4193.077148,4186.666504,2175.000000,4.000000,,,,0.000000,4.000000,4.000000,4.000000,4.000000,4.000000,4.000000,4.000000,4.000000,4.000000,4.000000,4.000000,4.000000,4.000000,4.000000,100.000000,,,,,,,,,,,,,,,,,,,,,,,,,,,,,,,,,,,,,,,,,,,,,,,,,,,,,,,,,,,,,,,,,,,,,,
1605176517.183977,113.000000,0.000000,4190.769043,4161.666504,4168.333496,4159.487305,4187.307617,4169.230957,4159.358887,4140.512695,4166.538574,4151.794922,4151.538574,4165.384766,4175.000000,4173.589844,2344.000000,4.000000,,,,0.000000,4.000000,4.000000,4.000000,4.000000,4.000000,4.000000,4.000000,4.000000,4.000000,4.000000,4.000000,4.000000,4.000000,4.000000,100.000000,,,,,,,,,,,,,,,,,,,,,,,,,,,,,,,,,,,,,,,,,,,,,,,,,,,,,,,,,,,,,,,,,,,,,,
1605176517.191860,114.000000,0.000000,4197.948730,4162.563965,4166.153809,4158.589844,4179.230957,4183.846191,4171.025879,4154.358887,4168.461426,4149.871582,4152.436035,4169.102539,4185.256348,4178.077148,3363.000000,4.000000,,,,0.000000,4.000000,4.000000,4.000000,4.000000,4.000000,4.000000,4.000000,4.000000,4.000000,4.000000,4.000000,4.000000,4.000000,4.000000,100.000000,,,,,,,,,,,,,,,,,,,,,,,,,,,,,,,,,,,,,,,,,,,,,,,,,,,,,,,,,,,,,,,,,,,,,,
1605176517.199842,115.000000,0.000000,4204.230957,4166.025879,4176.025879,4173.846191,4181.153809,4188.333496,4181.282227,4167.179688,4174.743652,4164.358887,4158.461426,4174.487305,4198.205078,4182.563965,2829.000000,4.000000,,,,0.000000,4.000000,4.000000,4.000000,4.000000,4.000000,4.000000,4.000000,4.000000,4.000000,4.000000,4.000000,4.000000,4.000000,4.000000,100.000000,,,,,,,,,,,,,,,,,,,,,,,,,,,,,,,,,,,,,,,,,,,,,,,,,,,,,,,,,,,,,,,,,,,,,,
1605176517.207724,116.000000,0.000000,4193.846191,4162.820313,4168.461426,4163.333496,4181.153809,4176.282227,4171.538574,4163.974121,4173.077148,4152.692383,4156.794922,4172.692383,4190.512695,4176.538574,2175.000000,4.000000,,,,0.000000,4.000000,4.000000,4.000000,4.000000,4.000000,4.000000,4.000000,4.000000,4.000000,4.000000,4.000000,4.000000,4.000000,4.000000,100.000000,,,,,,,,,,,,,,,,,,,,,,,,,,,,,,,,,,,,,,,,,,,,,,,,,,,,,,,,,,,,,,,,,,,,,,
1605176517.215706,117.000000,0.000000,4190.512695,4160.128418,4161.666504,4157.307617,4172.563965,4172.179688,4160.641113,4159.871582,4168.717773,4135.512695,4152.051270,4170.897461,4181.794922,4173.717773,2344.000000,4.000000,,,,0.000000,4.000000,4.000000,4.000000,4.000000,4.000000,4.000000,4.000000,4.000000,4.000000,4.000000,4.000000,4.000000,4.000000,4.000000,100.000000,,,,,,,,,,,,,,,,,,,,,,,,,,,,,,,,,,,,,,,,,,,,,,,,,,,,,,,,,,,,,,,,,,,,,,
1605176517.223588,118.000000,0.000000,4192.051270,4158.077148,4167.051270,4165.384766,4170.897461,4176.538574,4157.307617,4151.794922,4168.461426,4134.615234,4150.769043,4176.153809,4182.692383,4177.179688,3363.000000,4.000000,,,,0.000000,4.000000,4.000000,4.000000,4.000000,4.000000,4.000000,4.000000,4.000000,4.000000,4.000000,4.000000,4.000000,4.000000,4.000000,100.000000,,,,,,,,,,,,,,,,,,,,,,,,,,,,,,,,,,,,,,,,,,,,,,,,,,,,,,,,,,,,,,,,,,,,,,
1605176517.231570,119.000000,0.000000,4192.948730,4163.333496,4176.538574,4170.897461,4177.436035,4187.820313,4166.153809,4151.282227,4173.461426,4144.230957,4158.205078,4186.794922,4193.461426,4189.358887,2829.000000,4.000000,,,,0.000000,4.000000,4.000000,4.000000,4.000000,4.000000,4.000000,4.000000,4.000000,4.000000,4.000000,4.000000,4.000000,4.000000,4.000000,100.000000,,,,,,,,,,,,,,,,,,,,,,,,,,,,,,,,,,,,,,,,,,,,,,,,,,,,,,,,,,,,,,,,,,,,,,
1605176517.239451,120.000000,0.000000,4206.282227,4176.538574,4185.256348,4180.641113,4183.205078,4195.384766,4179.358887,4160.641113,4176.666504,4157.179688,4166.922852,4194.102539,4206.153809,4202.563965,2175.000000,4.000000,,,,0.000000,4.000000,4.000000,4.000000,4.000000,4.000000,4.000000,4.000000,4.000000,4.000000,4.000000,4.000000,4.000000,4.000000,4.000000,100.000000,1.064680,0.403616,0.754640,0.412123,0.486717,1.057771,0.482941,0.946396,0.696080,0.739232,1.022863,0.260432,0.719308,0.471364,0.704280,0.606296,0.580824,1.204188,1.141264,1.417775,0.365337,0.101334,0.089442,0.135925,0.103554,0.564388,0.331070,0.320205,0.432819,0.692149,1.615200,1.023475,1.292946,0.649340,1.034125,1.332662,1.398718,1.621341,0.523633,0.678199,0.382452,0.192012,0.201198,0.118323,0.104758,4.445945,1.997468,2.987277,1.259402,1.356684,1.204238,0.726817,0.601421,0.286186,0.361814,1.034202,0.611520,0.339509,0.202172,0.303111,1.193652,0.898630,0.895294,0.454044,0.609134,0.779747,0.824424,0.483564,0.220841,0.346836
1605176517.247433,121.000000,0.000000,4213.974121,4176.922852,4183.333496,4181.794922,4183.717773,4189.102539,4176.025879,4154.743652,4175.512695,4160.897461,4164.615234,4187.051270,4201.666504,4198.077148,2344.000000,4.000000,,,,0.000000,4.000000,4.000000,4.000000,4.000000,4.000000,4.000000,4.000000,4.000000,4.000000,4.000000,4.000000,4.000000,4.000000,4.000000,100.000000,,,,,,,,,,,,,,,,,,,,,,,,,,,,,,,,,,,,,,,,,,,,,,,,,,,,,,,,,,,,,,,,,,,,,,
1605176517.255315,122.000000,0.000000,4205.256348,4167.948730,4175.256348,4174.487305,4180.897461,4186.282227,4169.871582,4146.666504,4175.769043,4151.410156,4162.179688,4183.846191,4192.051270,4189.358887,3363.000000,4.000000,,,,0.000000,4.000000,4.000000,4.000000,4.000000,4.000000,4.000000,4.000000,4.000000,4.000000,4.000000,4.000000,4.000000,4.000000,4.000000,100.000000,,,,,,,,,,,,,,,,,,,,,,,,,,,,,,,,,,,,,,,,,,,,,,,,,,,,,,,,,,,,,,,,,,,,,,
1605176517.263297,123.000000,0.000000,4202.179688,4168.974121,4179.615234,4180.512695,4181.153809,4193.205078,4181.025879,4157.563965,4178.846191,4152.179688,4168.461426,4194.487305,4197.563965,4195.897461,2829.000000,4.000000,,,,0.000000,4.000000,4.000000,4.000000,4.000000,4.000000,4.000000,4.000000,4.000000,4.000000,4.000000,4.000000,4.000000,4.000000,4.000000,100.000000,,,,,,,,,,,,,,,,,,,,,,,,,,,,,,,,,,,,,,,,,,,,,,,,,,,,,,,,,,,,,,,,,,,,,,
1605176517.271179,124.000000,0.000000,4205.384766,4171.666504,4186.153809,4182.820313,4182.179688,4195.512695,4189.487305,4167.820313,4182.692383,4167.948730,4173.589844,4197.307617,4204.871582,4201.282227,2175.000000,4.000000,,,,0.000000,4.000000,4.000000,4.000000,4.000000,4.000000,4.000000,4.000000,4.000000,4.000000,4.000000,4.000000,4.000000,4.000000,4.000000,100.000000,,,,,,,,,,,,,,,,,,,,,,,,,,,,,,,,,,,,,,,,,,,,,,,,,,,,,,,,,,,,,,,,,,,,,,
1605176517.278961,125.000000,0.000000,4195.256348,4163.461426,4176.153809,4166.025879,4180.897461,4191.794922,4183.077148,4163.589844,4184.743652,4171.410156,4172.436035,4185.384766,4196.282227,4191.922852,2344.000000,4.000000,,,,0.000000,4.000000,4.000000,4.000000,4.000000,4.000000,4.000000,4.000000,4.000000,4.000000,4.000000,4.000000,4.000000,4.000000,4.000000,100.000000,,,,,,,,,,,,,,,,,,,,,,,,,,,,,,,,,,,,,,,,,,,,,,,,,,,,,,,,,,,,,,,,,,,,,,
1605176517.286843,126.000000,0.000000,4175.512695,4149.358887,4160.512695,4149.487305,4179.102539,4181.282227,4170.512695,4154.487305,4181.538574,4153.717773,4167.307617,4180.256348,4187.692383,4183.077148,3363.000000,4.000000,,,,0.000000,4.000000,4.000000,4.000000,4.000000,4.000000,4.000000,4.000000,4.000000,4.000000,4.000000,4.000000,4.000000,4.000000,4.000000,100.000000,,,,,,,,,,,,,,,,,,,,,,,,,,,,,,,,,,,,,,,,,,,,,,,,,,,,,,,,,,,,,,,,,,,,,,
1605176517.294625,127.000000,0.000000,4179.743652,4155.641113,4171.410156,4163.077148,4177.179688,4176.922852,4176.794922,4162.692383,4179.871582,4154.743652,4167.179688,4192.051270,4198.846191,4188.974121,53.000000,4.000000,,,,0.000000,4.000000,4.000000,4.000000,4.000000,4.000000,4.000000,4.000000,4.000000,4.000000,4.000000,4.000000,4.000000,4.000000,4.000000,100.000000,,,,,,,,,,,,,,,,,,,,,,,,,,,,,,,,,,,,,,,,,,,,,,,,,,,,,,,,,,,,,,,,,,,,,,
1605176517.302506,0.000000,0.000000,4192.692383,4169.615234,4187.948730,4179.102539,4177.820313,4184.102539,4187.820313,4175.128418,4186.025879,4173.461426,4174.358887,4202.051270,4202.563965,4196.794922,3789.000000,4.000000,,,,0.000000,4.000000,4.000000,4.000000,4.000000,4.000000,4.000000,4.000000,4.000000,4.000000,4.000000,4.000000,4.000000,4.000000,4.000000,100.000000,,,,,,,,,,,,,,,,,,,,,,,,,,,,,,,,,,,,,,,,,,,,,,,,,,,,,,,,,,,,,,,,,,,,,,
1605176517.310288,1.000000,0.000000,4182.179688,4158.589844,4173.717773,4162.820313,4182.307617,4187.820313,4180.000000,4162.436035,4185.256348,4162.179688,4173.205078,4195.897461,4184.615234,4189.871582,4076.000000,4.000000,,,,0.000000,4.000000,4.000000,4.000000,4.000000,4.000000,4.000000,4.000000,4.000000,4.000000,4.000000,4.000000,4.000000,4.000000,4.000000,100.000000,,,,,,,,,,,,,,,,,,,,,,,,,,,,,,,,,,,,,,,,,,,,,,,,,,,,,,,,,,,,,,,,,,,,,,
1605176517.318170,2.000000,0.000000,4175.897461,4147.820313,4166.282227,4156.025879,4183.846191,4182.692383,4177.692383,4149.743652,4183.077148,4145.000000,4167.692383,4194.230957,4186.922852,4187.820313,3789.000000,4.000000,,,,0.000000,4.000000,4.000000,4.000000,4.000000,4.000000,4.000000,4.000000,4.000000,4.000000,4.000000,4.000000,4.000000,4.000000,4.000000,100.000000,,,,,,,,,,,,,,,,,,,,,,,,,,,,,,,,,,,,,,,,,,,,,,,,,,,,,,,,,,,,,,,,,,,,,,
1605176517.325952,3.000000,0.000000,4190.641113,4159.230957,4187.436035,4179.358887,4181.794922,4179.743652,4187.179688,4164.615234,4186.794922,4163.077148,4176.410156,4207.179688,4208.205078,4199.871582,4250.000000,4.000000,,,,0.000000,4.000000,4.000000,4.000000,4.000000,4.000000,4.000000,4.000000,4.000000,4.000000,4.000000,4.000000,4.000000,4.000000,4.000000,100.000000,,,,,,,,,,,,,,,,,,,,,,,,,,,,,,,,,,,,,,,,,,,,,,,,,,,,,,,,,,,,,,,,,,,,,,
1605176517.333834,4.000000,0.000000,4184.743652,4158.077148,4186.025879,4175.256348,4183.077148,4179.871582,4181.666504,4166.922852,4186.410156,4171.538574,4180.384766,4210.769043,4202.948730,4198.333496,3537.000000,4.000000,,,,0.000000,4.000000,4.000000,4.000000,4.000000,4.000000,4.000000,4.000000,4.000000,4.000000,4.000000,4.000000,4.000000,4.000000,4.000000,100.000000,,,,,,,,,,,,,,,,,,,,,,,,,,,,,,,,,,,,,,,,,,,,,,,,,,,,,,,,,,,,,,,,,,,,,,
1605176517.341615,5.000000,0.000000,4167.692383,4143.077148,4162.692383,4144.871582,4185.000000,4177.563965,4166.025879,4148.589844,4186.153809,4152.051270,4174.102539,4203.333496,4190.641113,4189.871582,3390.000000,4.000000,,,,0.000000,4.000000,4.000000,4.000000,4.000000,4.000000,4.000000,4.000000,4.000000,4.000000,4.000000,4.000000,4.000000,4.000000,4.000000,100.000000,,,,,,,,,,,,,,,,,,,,,,,,,,,,,,,,,,,,,,,,,,,,,,,,,,,,,,,,,,,,,,,,,,,,,,
1605176517.349497,6.000000,0.000000,4163.077148,4132.820313,4153.974121,4130.384766,4179.487305,4170.384766,4151.538574,4136.538574,4182.051270,4131.282227,4164.743652,4195.769043,4185.384766,4184.102539,4078.000000,4.000000,,,,0.000000,4.000000,4.000000,4.000000,4.000000,4.000000,4.000000,4.000000,4.000000,4.000000,4.000000,4.000000,4.000000,4.000000,4.000000,100.000000,,,,,,,,,,,,,,,,,,,,,,,,,,,,,,,,,,,,,,,,,,,,,,,,,,,,,,,,,,,,,,,,,,,,,,
1605176517.357279,7.000000,0.000000,4159.230957,4127.948730,4152.563965,4129.230957,4173.974121,4167.948730,4141.153809,4130.128418,4172.948730,4118.333496,4157.051270,4188.717773,4178.846191,4177.436035,3682.000000,4.000000,,,,0.000000,4.000000,4.000000,4.000000,4.000000,4.000000,4.000000,4.000000,4.000000,4.000000,4.000000,4.000000,4.000000,4.000000,4.000000,100.000000,,,,,,,,,,,,,,,,,,,,,,,,,,,,,,,,,,,,,,,,,,,,,,,,,,,,,,,,,,,,,,,,,,,,,,
1605176517.365161,8.000000,0.000000,4157.948730,4129.615234,4154.230957,4139.487305,4177.307617,4173.846191,4144.487305,4132.820313,4171.666504,4113.589844,4156.922852,4190.897461,4181.666504,4179.871582,1258.000000,4.000000,,,,0.000000,4.000000,4.000000,4.000000,4.000000,4.000000,4.000000,4.000000,4.000000,4.000000,4.000000,4.000000,4.000000,4.000000,4.000000,100.000000,1.125219,0.325543,0.765924,0.376791,0.469482,1.126505,0.381870,0.740098,0.621263,0.669348,1.116074,0.197617,0.701506,0.428926,0.612291,0.782961,0.614940,1.073865,1.029755,1.243578,0.384593,0.115918,0.096995,0.131981,0.107004,0.519107,0.357833,0.409278,0.418528,0.609753,1.653331,1.087202,1.457537,0.642813,0.923953,1.464953,1.785998,1.796395,0.616307,0.703511,0.378281,0.270592,0.195420,0.112193,0.099342,5.112014,2.600873,2.973795,1.123757,1.210682,1.198694,0.931372,0.547987,0.266010,0.316477,0.904596,0.621994,0.306908,0.178987,0.272205,1.069545,1.041652,0.933626,0.447456,0.550250,0.640412,0.834890,0.468310,0.212268,0.318760
1605176517.372942,9.000000,0.000000,4161.538574,4137.692383,4164.358887,4160.384766,4180.384766,4175.128418,4152.948730,4147.051270,4177.820313,4119.358887,4159.871582,4202.563965,4189.358887,4190.256348,4391.000000,4.000000,,,,0.000000,4.000000,4.000000,4.000000,4.000000,4.000000,4.000000,4.000000,4.000000,4.000000,4.000000,4.000000,4.000000,4.000000,4.000000,100.000000,,,,,,,,,,,,,,,,,,,,,,,,,,,,,,,,,,,,,,,,,,,,,,,,,,,,,,,,,,,,,,,,,,,,,,
1605176517.380824,10.000000,0.000000,4165.512695,4138.846191,4166.538574,4162.948730,4177.563965,4173.205078,4154.615234,4148.974121,4179.230957,4124.487305,4162.179688,4204.358887,4190.128418,4191.282227,3361.000000,4.000000,,,,0.000000,4.000000,4.000000,4.000000,4.000000,4.000000,4.000000,4.000000,4.000000,4.000000,4.000000,4.000000,4.000000,4.000000,4.000000,100.000000,,,,,,,,,,,,,,,,,,,,,,,,,,,,,,,,,,,,,,,,,,,,,,,,,,,,,,,,,,,,,,,,,,,,,,
1605176517.388605,11.000000,0.000000,4174.615234,4135.128418,4162.307617,4148.846191,4178.461426,4179.230957,4158.205078,4143.461426,4181.282227,4123.846191,4162.948730,4198.974121,4194.487305,4193.077148,2855.000000,4.000000,,,,0.000000,4.000000,4.000000,4.000000,4.000000,4.000000,4.000000,4.000000,4.000000,4.000000,4.000000,4.000000,4.000000,4.000000,4.000000,100.000000,,,,,,,,,,,,,,,,,,,,,,,,,,,,,,,,,,,,,,,,,,,,,,,,,,,,,,,,,,,,,,,,,,,,,,
1605176517.396487,12.000000,0.000000,4180.641113,4140.000000,4168.205078,4153.589844,4185.897461,4180.128418,4157.436035,4147.820313,4186.794922,4134.358887,4167.563965,4202.436035,4202.948730,4199.743652,2181.000000,4.000000,,,,0.000000,4.000000,4.000000,4.000000,4.000000,4.000000,4.000000,4.000000,4.000000,4.000000,4.000000,4.000000,4.000000,4.000000,4.000000,100.000000,,,,,,,,,,,,,,,,,,,,,,,,,,,,,,,,,,,,,,,,,,,,,,,,,,,,,,,,,,,,,,,,,,,,,,
1605176517.404268,13.000000,0.000000,4179.102539,4140.769043,4171.410156,4160.897461,4184.230957,4169.487305,4147.179688,4146.410156,4182.436035,4141.282227,4168.205078,4208.717773,4202.948730,4199.102539,2345.000000,4.000000,,,,0.000000,4.000000,4.000000,4.000000,4.000000,4.000000,4.000000,4.000000,4.000000,4.000000,4.000000,4.000000,4.000000,4.000000,4.000000,100.000000,,,,,,,,,,,,,,,,,,,,,,,,,,,,,,,,,,,,,,,,,,,,,,,,,,,,,,,,,,,,,,,,,,,,,,
1605176517.412250,14.000000,0.000000,4177.051270,4128.205078,4162.179688,4142.820313,4170.641113,4162.307617,4141.025879,4137.692383,4177.051270,4125.641113,4158.974121,4205.769043,4205.128418,4198.077148,3361.000000,4.000000,,,,0.000000,4.000000,4.000000,4.000000,4.000000,4.000000,4.000000,4.000000,4.000000,4.000000,4.000000,4.000000,4.000000,4.000000,4.000000,100.000000,,,,,,,,,,,,,,,,,,,,,,,,,,,,,,,,,,,,,,,,,,,,,,,,,,,,,,,,,,,,,,,,,,,,,,
1605176517.420132,15.000000,0.000000,4171.153809,4117.948730,4158.205078,4132.179688,4167.436035,4168.974121,4143.974121,4139.230957,4180.897461,4113.333496,4153.333496,4199.615234,4204.871582,4195.000000,2855.000000,4.000000,,,,0.000000,4.000000,4.000000,4.000000,4.000000,4.000000,4.000000,4.000000,4.000000,4.000000,4.000000,4.000000,4.000000,4.000000,4.000000,100.000000,,,,,,,,,,,,,,,,,,,,,,,,,,,,,,,,,,,,,,,,,,,,,,,,,,,,,,,,,,,,,,,,,,,,,,
1605176517.428114,16.000000,0.000000,4177.563965,4134.102539,4172.307617,4160.384766,4177.436035,4179.102539,4156.794922,4154.871582,4184.615234,4131.025879,4163.461426,4203.461426,4200.384766,4192.179688,0.000000,4.000000,,,,0.000000,4.000000,4.000000,4.000000,4.000000,4.000000,4.000000,4.000000,4.000000,4.000000,4.000000,4.000000,4.000000,4.000000,4.000000,100.000000,,,,,,,,,,,,,,,,,,,,,,,,,,,,,,,,,,,,,,,,,,,,,,,,,,,,,,,,,,,,,,,,,,,,,,
1605176517.435996,17.000000,0.000000,4190.897461,4144.743652,4177.948730,4172.948730,4182.692383,4177.948730,4162.563965,4160.384766,4185.000000,4149.615234,4170.641113,4210.384766,4199.615234,4195.641113,0.000000,4.000000,,,,0.000000,4.000000,4.000000,4.000000,4.000000,4.000000,4.000000,4.000000,4.000000,4.000000,4.000000,4.000000,4.000000,4.000000,4.000000,100.000000,,,,,,,,,,,,,,,,,,,,,,,,,,,,,,,,,,,,,,,,,,,,,,,,,,,,,,,,,,,,,,,,,,,,,,
1605176517.443977,18.000000,0.000000,4179.615234,4125.512695,4163.205078,4143.333496,4181.410156,4174.102539,4151.666504,4147.692383,4182.051270,4139.358887,4161.794922,4203.205078,4195.512695,4192.948730,0.000000,4.000000,,,,0.000000,4.000000,4.000000,4.000000,4.000000,4.000000,4.000000,4.000000,4.000000,4.000000,4.000000,4.000000,4.000000,4.000000,4.000000,100.000000,,,,,,,,,,,,,,,,,,,,,,,,,,,,,,,,,,,,,,,,,,,,,,,,,,,,,,,,,,,,,,,,,,,,,,
1605176517.451960,19.000000,0.000000,4163.461426,4115.384766,4153.461426,4133.974121,4180.256348,4173.974121,4140.512695,4137.307617,4181.922852,4122.692383,4156.410156,4196.410156,4190.000000,4186.666504,0.000000,4.000000,,,,0.000000,4.000000,4.000000,4.000000,4.000000,4.000000,4.000000,4.000000,4.000000,4.000000,4.000000,4.000000,4.000000,4.000000,4.000000,100.000000,,,,,,,,,,,,,,,,,,,,,,,,,,,,,,,,,,,,,,,,,,,,,,,,,,,,,,,,,,,,,,,,,,,,,,
1605176517.459842,20.000000,0.000000,4171.153809,4131.410156,4158.589844,4153.846191,4178.589844,4175.000000,4143.846191,4144.358887,4183.974121,4123.974121,4159.102539,4201.025879,4191.282227,4190.897461,0.000000,4.000000,,,,0.000000,4.000000,4.000000,4.000000,4.000000,4.000000,4.000000,4.000000,4.000000,4.000000,4.000000,4.000000,4.000000,4.000000,4.000000,100.000000,,,,,,,,,,,,,,,,,,,,,,,,,,,,,,,,,,,,,,,,,,,,,,,,,,,,,,,,,,,,,,,,,,,,,,
1605176517.467724,21.000000,0.000000,4177.948730,4140.128418,4163.077148,4153.333496,4174.358887,4175.769043,4152.307617,4154.102539,4184.871582,4134.871582,4161.538574,4200.641113,4192.692383,4196.666504,0.000000,4.000000,,,,0.000000,4.000000,4.000000,4.000000,4.000000,4.000000,4.000000,4.000000,4.000000,4.000000,4.000000,4.000000,4.000000,4.000000,4.000000,100.000000,,,,,,,,,,,,,,,,,,,,,,,,,,,,,,,,,,,,,,,,,,,,,,,,,,,,,,,,,,,,,,,,,,,,,,
1605176517.475506,22.000000,0.000000,4171.153809,4133.333496,4160.256348,4142.051270,4175.128418,4175.384766,4156.922852,4154.102539,4185.256348,4139.487305,4162.948730,4195.256348,4193.717773,4195.641113,0.000000,4.000000,,,,0.000000,4.000000,4.000000,4.000000,4.000000,4.000000,4.000000,4.000000,4.000000,4.000000,4.000000,4.000000,4.000000,4.000000,4.000000,100.000000,,,,,,,,,,,,,,,,,,,,,,,,,,,,,,,,,,,,,,,,,,,,,,,,,,,,,,,,,,,,,,,,,,,,,,
1605176517.483488,23.000000,0.000000,4162.179688,4124.871582,4150.000000,4135.512695,4181.666504,4169.102539,4152.179688,4149.615234,4183.205078,4126.282227,4157.948730,4193.205078,4190.512695,4188.205078,0.000000,4.000000,,,,0.000000,4.000000,4.000000,4.000000,4.000000,4.000000,4.000000,4.000000,4.000000,4.000000,4.000000,4.000000,4.000000,4.000000,4.000000,100.000000,,,,,,,,,,,,,,,,,,,,,,,,,,,,,,,,,,,,,,,,,,,,,,,,,,,,,,,,,,,,,,,,,,,,,,
1605176517.491370,24.000000,0.000000,4159.102539,4123.589844,4147.307617,4134.487305,4186.153809,4170.512695,4153.717773,4155.256348,4181.410156,4119.358887,4153.589844,4193.717773,4185.512695,4184.615234,0.000000,4.000000,,,,0.000000,4.000000,4.000000,4.000000,4.000000,4.000000,4.000000,4.000000,4.000000,4.000000,4.000000,4.000000,4.000000,4.000000,4.000000,100.000000,1.204784,0.262380,0.769320,0.345937,0.447944,1.341512,0.338140,0.626938,0.555171,0.610847,1.350355,0.171982,0.723841,0.408124,0.540782,1.092408,0.649199,0.975468,0.953406,1.099524,0.418923,0.135136,0.108665,0.128718,0.106771,0.508263,0.359608,0.514024,0.412054,0.543485,1.914551,1.079087,1.610853,0.664787,0.857010,1.934719,2.165418,1.888635,0.768843,0.771607,0.417539,0.345732,0.191338,0.104870,0.097781,6.678603,2.979778,2.839302,1.018397,1.102881,1.288965,1.055128,0.482380,0.242485,0.277974,0.868018,0.602221,0.271058,0.156553,0.240924,1.265998,1.136587,0.937739,0.445315,0.495383,0.608144,0.804389,0.455620,0.216292,0.301841
1605176517.499352,25.000000,0.000000,4167.051270,4130.384766,4164.358887,4148.077148,4184.615234,4184.487305,4169.871582,4172.563965,4185.128418,4140.000000,4162.692383,4201.153809,4192.307617,4191.922852,0.000000,4.000000,,,,0.000000,4.000000,4.000000,4.000000,4.000000,4.000000,4.000000,4.000000,4.000000,4.000000,4.000000,4.000000,4.000000,4.000000,4.000000,100.000000,,,,,,,,,,,,,,,,,,,,,,,,,,,,,,,,,,,,,,,,,,,,,,,,,,,,,,,,,,,,,,,,,,,,,,
1605176517.507234,26.000000,0.000000,4172.563965,4138.205078,4174.230957,4159.358887,4183.461426,4195.128418,4183.589844,4178.846191,4190.000000,4161.666504,4174.871582,4206.922852,4203.717773,4200.512695,0.000000,4.000000,,,,0.000000,4.000000,4.000000,4.000000,4.000000,4.000000,4.000000,4.000000,4.000000,4.000000,4.000000,4.000000,4.000000,4.000000,4.000000,100.000000,,,,,,,,,,,,,,,,,,,,,,,,,,,,,,,,,,,,,,,,,,,,,,,,,,,,,,,,,,,,,,,,,,,,,,
1605176517.515216,27.000000,0.000000,4163.974121,4136.538574,4163.461426,4150.769043,4184.615234,4193.205078,4178.974121,4166.538574,4187.563965,4158.589844,4172.051270,4201.410156,4198.589844,4195.769043,0.000000,4.000000,,,,0.000000,4.000000,4.000000,4.000000,4.000000,4.000000,4.000000,4.000000,4.000000,4.000000,4.000000,4.000000,4.000000,4.000000,4.000000,100.000000,,,,,,,,,,,,,,,,,,,,,,,,,,,,,,,,,,,,,,,,,,,,,,,,,,,,,,,,,,,,,,,,,,,,,,
1605176517.523099,28.000000,0.000000,4160.897461,4135.769043,4157.436035,4149.102539,4185.000000,4183.974121,4165.512695,4157.820313,4185.128418,4153.205078,4168.205078,4198.717773,4189.358887,4189.358887,0.000000,4.000000,,,,0.000000,4.000000,4.000000,4.000000,4.000000,4.000000,4.000000,4.000000,4.000000,4.000000,4.000000,4.000000,4.000000,4.000000,4.000000,100.000000,,,,,,,,,,,,,,,,,,,,,,,,,,,,,,,,,,,,,,,,,,,,,,,,,,,,,,,,,,,,,,,,,,,,,,
1605176517.531081,29.000000,0.000000,4165.256348,4134.615234,4156.922852,4151.153809,4185.512695,4177.563965,4157.948730,4152.307617,4185.641113,4149.102539,4170.641113,4200.641113,4184.358887,4189.743652,0.000000,4.000000,,,,0.000000,4.000000,4.000000,4.000000,4.000000,4.000000,4.000000,4.000000,4.000000,4.000000,4.000000,4.000000,4.000000,4.000000,4.000000,100.000000,,,,,,,,,,,,,,,,,,,,,,,,,,,,,,,,,,,,,,,,,,,,,,,,,,,,,,,,,,,,,,,,,,,,,,
1605176517.538963,30.000000,0.000000,4161.794922,4128.333496,4154.743652,4144.615234,4183.333496,4174.743652,4156.153809,4146.153809,4185.384766,4130.384766,4164.871582,4199.743652,4178.974121,4190.128418,0.000000,4.000000,,,,0.000000,4.000000,4.000000,4.000000,4.000000,4.000000,4.000000,4.000000,4.000000,4.000000,4.000000,4.000000,4.000000,4.000000,4.000000,100.000000,,,,,,,,,,,,,,,,,,,,,,,,,,,,,,,,,,,,,,,,,,,,,,,,,,,,,,,,,,,,,,,,,,,,,,
1605176517.546944,31.000000,0.000000,4161.153809,4126.922852,4160.897461,4147.692383,4177.563965,4168.205078,4150.641113,4145.128418,4184.743652,4123.333496,4158.077148,4198.077148,4177.692383,4188.461426,0.000000,4.000000,,,,0.000000,4.000000,4.000000,4.000000,4.000000,4.000000,4.000000,4.000000,4.000000,4.000000,4.000000,4.000000,4.000000,4.000000,4.000000,100.000000,,,,,,,,,,,,,,,,,,,,,,,,,,,,,,,,,,,,,,,,,,,,,,,,,,,,,,,,,,,,,,,,,,,,,,
1605176517.554826,32.000000,0.000000,4162.436035,4122.692383,4158.205078,4144.871582,4180.641113,4165.897461,4143.077148,4140.641113,4182.051270,4128.461426,4161.410156,4197.948730,4177.051270,4188.077148,0.000000,4.000000,,,,0.000000,4.000000,4.000000,4.000000,4.000000,4.000000,4.000000,4.000000,4.000000,4.000000,4.000000,4.000000,4.000000,4.000000,4.000000,100.000000,,,,,,,,,,,,,,,,,,,,,,,,,,,,,,,,,,,,,,,,,,,,,,,,,,,,,,,,,,,,,,,,,,,,,,
1605176517.562808,33.000000,0.000000,4157.820313,4123.589844,4149.102539,4136.666504,4188.333496,4174.358887,4147.179688,4139.487305,4179.230957,4126.153809,4164.358887,4203.717773,4180.641113,4193.846191,0.000000,4.000000,,,,0.000000,4.000000,4.000000,4.000000,4.000000,4.000000,4.000000,4.000000,4.000000,4.000000,4.000000,4.000000,4.000000,4.000000,4.000000,100.000000,,,,,,,,,,,,,,,,,,,,,,,,,,,,,,,,,,,,,,,,,,,,,,,,,,,,,,,,,,,,,,,,,,,,,,
1605176517.570690,34.000000,0.000000,4159.358887,4139.743652,4160.384766,4149.358887,4183.461426,4174.871582,4150.512695,4145.769043,4181.922852,4126.410156,4163.205078,4211.153809,4184.743652,4200.384766,0.000000,4.000000,,,,0.000000,4.000000,4.000000,4.000000,4.000000,4.000000,4.000000,4.000000,4.000000,4.000000,4.000000,4.000000,4.000000,4.000000,4.000000,100.000000,,,,,,,,,,,,,,,,,,,,,,,,,,,,,,,,,,,,,,,,,,,,,,,,,,,,,,,,,,,,,,,,,,,,,,
1605176517.578672,35.000000,0.000000,4163.974121,4140.769043,4170.512695,4156.410156,4173.846191,4161.922852,4138.333496,4140.641113,4186.153809,4129.615234,4161.025879,4204.615234,4175.384766,4194.487305,0.000000,4.000000,,,,0.000000,4.000000,4.000000,4.000000,4.000000,4.000000,4.000000,4.000000,4.000000,4.000000,4.000000,4.000000,4.000000,4.000000,4.000000,100.000000,,,,,,,,,,,,,,,,,,,,,,,,,,,,,,,,,,,,,,,,,,,,,,,,,,,,,,,,,,,,,,,,,,,,,,
1605176517.586554,36.000000,0.000000,4157.436035,4115.769043,4156.538574,4136.538574,4172.307617,4155.897461,4129.358887,4127.179688,4181.922852,4116.282227,4154.230957,4195.128418,4164.743652,4182.179688,0.000000,4.000000,,,,0.000000,4.000000,4.000000,4.000000,4.000000,4.000000,4.000000,4.000000,4.000000,4.000000,4.000000,4.000000,4.000000,4.000000,4.000000,100.000000,,,,,,,,,,,,,,,,,,,,,,,,,,,,,,,,,,,,,,,,,,,,,,,,,,,,,,,,,,,,,,,,,,,,,,
1605176517.594336,37.000000,0.000000,4155.000000,4108.205078,4143.717773,4126.666504,4175.128418,4160.128418,4132.563965,4125.641113,4172.948730,4099.230957,4146.794922,4200.384766,4169.230957,4180.256348,0.000000,4.000000,,,,0.000000,4.000000,4.000000,4.000000,4.000000,4.000000,4.000000,4.000000,4.000000,4.000000,4.000000,4.000000,4.000000,4.000000,4.000000,100.000000,,,,,,,,,,,,,,,,,,,,,,,,,,,,,,,,,,,,,,,,,,,,,,,,,,,,,,,,,,,,,,,,,,,,,,
1605176517.602217,38.000000,0.000000,4155.256348,4116.153809,4146.410156,4131.666504,4174.230957,4160.769043,4129.358887,4126.794922,4169.743652,4094.230713,4143.205078,4202.692383,4170.384766,4182.436035,0.000000,4.000000,,,,0.000000,4.000000,4.000000,4.000000,4.000000,4.000000,4.000000,4.000000,4.000000,4.000000,4.000000,4.000000,4.000000,4.000000,4.000000,100.000000,,,,,,,,,,,,,,,,,,,,,,,,,,,,,,,,,,,,,,,,,,,,,,,,,,,,,,,,,,,,,,,,,,,,,,
1605176517.609999,39.000000,0.000000,4137.307617,4108.589844,4148.589844,4129.102539,4171.282227,4157.563965,4122.307617,4128.333496,4172.820313,4090.641113,4136.666504,4191.282227,4166.538574,4180.000000,0.000000,4.000000,,,,0.000000,4.000000,4.000000,4.000000,4.000000,4.000000,4.000000,4.000000,4.000000,4.000000,4.000000,4.000000,4.000000,4.000000,4.000000,100.000000,,,,,,,,,,,,,,,,,,,,,,,,,,,,,,,,,,,,,,,,,,,,,,,,,,,,,,,,,,,,,,,,,,,,,,
1605176517.617881,40.000000,0.000000,4120.000000,4094.358887,4137.307617,4112.820313,4169.871582,4150.000000,4113.589844,4123.333496,4166.538574,4068.589844,4124.615234,4180.384766,4160.769043,4172.436035,0.000000,4.000000,,,,0.000000,4.000000,4.000000,4.000000,4.000000,4.000000,4.000000,4.000000,4.000000,4.000000,4.000000,4.000000,4.000000,4.000000,4.000000,100.000000,1.271847,0.224244,0.752274,0.329134,0.432053,1.625084,0.343897,0.578045,0.517728,0.570446,1.684906,0.186885,0.780235,0.421278,0.499717,1.502155,0.682610,0.950976,0.953663,1.006448,0.470904,0.149831,0.129927,0.129155,0.103155,0.556348,0.333434,0.618591,0.412237,0.505955,2.382889,0.992167,1.718904,0.688135,0.827858,2.593525,2.432415,1.860293,0.927785,0.853543,0.487312,0.396658,0.182810,0.099257,0.100487,8.815535,2.990951,2.531716,0.952489,1.044904,1.467988,1.063035,0.404144,0.215110,0.251577,0.886395,0.544276,0.240266,0.132619,0.213416,1.600391,1.114339,0.893171,0.431007,0.455933,0.657608,0.712059,0.455345,0.222142,0.295148
1605176517.625663,41.000000,0.000000,4136.666504,4099.102539,4132.948730,4110.641113,4168.077148,4154.871582,4118.077148,4119.358887,4158.589844,4051.923096,4119.871582,4183.205078,4159.615234,4172.820313,0.000000,4.000000,,,,0.000000,4.000000,4.000000,4.000000,4.000000,4.000000,4.000000,4.000000,4.000000,4.000000,4.000000,4.000000,4.000000,4.000000,4.000000,100.000000,,,,,,,,,,,,,,,,,,,,,,,,,,,,,,,,,,,,,,,,,,,,,,,,,,,,,,,,,,,,,,,,,,,,,,
1605176517.633545,42.000000,0.000000,4154.615234,4111.538574,4146.025879,4132.307617,4166.025879,4169.615234,4135.641113,4130.769043,4164.230957,4066.410156,4128.077148,4188.205078,4169.230957,4180.000000,0.000000,4.000000,,,,0.000000,4.000000,4.000000,4.000000,4.000000,4.000000,4.000000,4.000000,4.000000,4.000000,4.000000,4.000000,4.000000,4.000000,4.000000,100.000000,,,,,,,,,,,,,,,,,,,,,,,,,,,,,,,,,,,,,,,,,,,,,,,,,,,,,,,,,,,,,,,,,,,,,,
1605176517.641326,43.000000,0.000000,4144.358887,4112.948730,4153.333496,4141.922852,4169.487305,4171.538574,4139.358887,4141.538574,4170.769043,4080.769287,4132.307617,4186.538574,4176.153809,4182.051270,0.000000,4.000000,,,,0.000000,4.000000,4.000000,4.000000,4.000000,4.000000,4.000000,4.000000,4.000000,4.000000,4.000000,4.000000,4.000000,4.000000,4.000000,100.000000,,,,,,,,,,,,,,,,,,,,,,,,,,,,,,,,,,,,,,,,,,,,,,,,,,,,,,,,,,,,,,,,,,,,,,
1605176517.649208,44.000000,0.000000,4138.974121,4112.051270,4147.179688,4130.128418,4168.589844,4165.897461,4133.846191,4139.487305,4168.461426,4077.820557,4129.615234,4189.487305,4173.974121,4183.846191,0.000000,4.000000,,,,0.000000,4.000000,4.000000,4.000000,4.000000,4.000000,4.000000,4.000000,4.000000,4.000000,4.000000,4.000000,4.000000,4.000000,4.000000,100.000000,,,,,,,,,,,,,,,,,,,,,,,,,,,,,,,,,,,,,,,,,,,,,,,,,,,,,,,,,,,,,,,,,,,,,,
1605176517.656990,45.000000,0.000000,4136.282227,4108.846191,4139.615234,4120.384766,4158.846191,4159.230957,4128.846191,4129.230957,4163.717773,4070.641113,4128.205078,4192.436035,4169.230957,4182.820313,0.000000,4.000000,,,,0.000000,4.000000,4.000000,4.000000,4.000000,4.000000,4.000000,4.000000,4.000000,4.000000,4.000000,4.000000,4.000000,4.000000,4.000000,100.000000,,,,,,,,,,,,,,,,,,,,,,,,,,,,,,,,,,,,,,,,,,,,,,,,,,,,,,,,,,,,,,,,,,,,,,
1605176517.664872,46.000000,0.000000,4118.717773,4088.205078,4124.871582,4105.256348,4156.282227,4142.820313,4110.000000,4109.615234,4155.000000,4039.615479,4113.589844,4180.897461,4156.666504,4170.384766,0.000000,4.000000,,,,0.000000,4.000000,4.000000,4.000000,4.000000,4.000000,4.000000,4.000000,4.000000,4.000000,4.000000,4.000000,4.000000,4.000000,4.000000,100.000000,,,,,,,,,,,,,,,,,,,,,,,,,,,,,,,,,,,,,,,,,,,,,,,,,,,,,,,,,,,,,,,,,,,,,,
1605176517.672653,47.000000,0.000000,4123.077148,4087.435791,4126.794922,4104.615234,4162.692383,4143.717773,4109.230957,4107.436035,4152.307617,4024.230713,4104.358887,4179.358887,4154.102539,4169.102539,0.000000,4.000000,,,,0.000000,4.000000,4.000000,4.000000,4.000000,4.000000,4.000000,4.000000,4.000000,4.000000,4.000000,4.000000,4.000000,4.000000,4.000000,100.000000,,,,,,,,,,,,,,,,,,,,,,,,,,,,,,,,,,,,,,,,,,,,,,,,,,,,,,,,,,,,,,,,,,,,,,
1605176517.680535,48.000000,0.000000,4136.025879,4112.051270,4151.538574,4130.000000,4163.974121,4166.282227,4137.692383,4131.410156,4164.102539,4061.153809,4123.974121,4198.461426,4173.461426,4186.666504,0.000000,4.000000,,,,0.000000,4.000000,4.000000,4.000000,4.000000,4.000000,4.000000,4.000000,4.000000,4.000000,4.000000,4.000000,4.000000,4.000000,4.000000,100.000000,,,,,,,,,,,,,,,,,,,,,,,,,,,,,,,,,,,,,,,,,,,,,,,,,,,,,,,,,,,,,,,,,,,,,,
1605176517.688317,49.000000,0.000000,4125.897461,4112.436035,4151.282227,4132.948730,4163.717773,4163.205078,4133.974121,4132.563965,4169.871582,4072.948730,4134.615234,4205.256348,4178.717773,4188.974121,0.000000,4.000000,,,,0.000000,4.000000,4.000000,4.000000,4.000000,4.000000,4.000000,4.000000,4.000000,4.000000,4.000000,4.000000,4.000000,4.000000,4.000000,100.000000,,,,,,,,,,,,,,,,,,,,,,,,,,,,,,,,,,,,,,,,,,,,,,,,,,,,,,,,,,,,,,,,,,,,,,
1605176517.696198,50.000000,0.000000,4119.230957,4104.230957,4139.230957,4122.692383,4167.051270,4148.846191,4115.769043,4117.051270,4165.512695,4051.025635,4124.230957,4195.512695,4167.820313,4181.666504,0.000000,4.000000,,,,0.000000,4.000000,4.000000,4.000000,4.000000,4.000000,4.000000,4.000000,4.000000,4.000000,4.000000,4.000000,4.000000,4.000000,4.000000,100.000000,,,,,,,,,,,,,,,,,,,,,,,,,,,,,,,,,,,,,,,,,,,,,,,,,,,,,,,,,,,,,,,,,,,,,,
1605176517.703980,51.000000,0.000000,4121.410156,4110.512695,4147.179688,4129.487305,4166.794922,4160.512695,4127.563965,4128.461426,4168.974121,4065.512939,4129.487305,4199.871582,4170.897461,4191.410156,0.000000,4.000000,,,,0.000000,4.000000,4.000000,4.000000,4.000000,4.000000,4.000000,4.000000,4.000000,4.000000,4.000000,4.000000,4.000000,4.000000,4.000000,100.000000,,,,,,,,,,,,,,,,,,,,,,,,,,,,,,,,,,,,,,,,,,,,,,,,,,,,,,,,,,,,,,,,,,,,,,
1605176517.711962,52.000000,0.000000,4116.538574,4108.333496,4145.128418,4121.666504,4169.615234,4164.615234,4123.974121,4138.077148,4171.153809,4086.410156,4140.128418,4209.102539,4176.538574,4195.000000,0.000000,4.000000,,,,0.000000,4.000000,4.000000,4.000000,4.000000,4.000000,4.000000,4.000000,4.000000,4.000000,4.000000,4.000000,4.000000,4.000000,4.000000,100.000000,,,,,,,,,,,,,,,,,,,,,,,,,,,,,,,,,,,,,,,,,,,,,,,,,,,,,,,,,,,,,,,,,,,,,,
1605176517.719843,53.000000,0.000000,4128.461426,4113.461426,4140.000000,4117.948730,4172.051270,4156.025879,4110.897461,4129.871582,4168.077148,4077.564209,4137.307617,4207.051270,4173.461426,4186.922852,0.000000,4.000000,,,,0.000000,4.000000,4.000000,4.000000,4.000000,4.000000,4.000000,4.000000,4.000000,4.000000,4.000000,4.000000,4.000000,4.000000,4.000000,100.000000,,,,,,,,,,,,,,,,,,,,,,,,,,,,,,,,,,,,,,,,,,,,,,,,,,,,,,,,,,,,,,,,,,,,,,
1605176517.727825,54.000000,0.000000,4148.974121,4141.410156,4157.948730,4146.153809,4174.358887,4164.743652,4130.128418,4134.487305,4174.358887,4087.692383,4142.179688,4206.410156,4171.538574,4190.000000,0.000000,4.000000,,,,0.000000,4.000000,4.000000,4.000000,4.000000,4.000000,4.000000,4.000000,4.000000,4.000000,4.000000,4.000000,4.000000,4.000000,4.000000,100.000000,,,,,,,,,,,,,,,,,,,,,,,,,,,,,,,,,,,,,,,,,,,,,,,,,,,,,,,,,,,,,,,,,,,,,,
1605176517.735707,55.000000,0.000000,4149.358887,4148.589844,4164.743652,4155.128418,4181.922852,4166.922852,4139.743652,4138.717773,4179.871582,4109.102539,4151.922852,4211.025879,4171.922852,4196.153809,0.000000,4.000000,,,,0.000000,4.000000,4.000000,4.000000,4.000000,4.000000,4.000000,4.000000,4.000000,4.000000,4.000000,4.000000,4.000000,4.000000,4.000000,100.000000,,,,,,,,,,,,,,,,,,,,,,,,,,,,,,,,,,,,,,,,,,,,,,,,,,,,,,,,,,,,,,,,,,,,,,
1605176517.743689,56.000000,0.000000,4154.230957,4142.179688,4156.410156,4142.948730,4180.128418,4160.641113,4129.358887,4134.230957,4178.077148,4113.333496,4150.897461,4212.820313,4175.256348,4195.897461,0.000000,4.000000,,,,0.000000,4.000000,4.000000,4.000000,4.000000,4.000000,4.000000,4.000000,4.000000,4.000000,4.000000,4.000000,4.000000,4.000000,4.000000,100.000000,1.347211,0.218676,0.736354,0.325902,0.430358,1.910303,0.385051,0.582604,0.509717,0.547922,2.037684,0.243222,0.874059,0.464452,0.489446,1.947691,0.721925,1.046470,1.032664,0.965407,0.536064,0.155054,0.162502,0.135965,0.097501,0.680590,0.289121,0.715742,0.416515,0.495635,3.002361,0.868728,1.759156,0.703885,0.814016,3.265013,2.522067,1.698702,1.043573,0.912336,0.581695,0.408715,0.166350,0.097849,0.105563,11.118192,2.665158,2.098457,0.935831,1.028921,1.735752,0.960330,0.323362,0.190964,0.236974,0.923288,0.462454,0.225928,0.110888,0.194452,1.898203,0.976942,0.808302,0.404408,0.436587,0.757976,0.567520,0.480609,0.224041,0.294661
1605176517.751571,57.000000,0.000000,4163.974121,4146.922852,4160.512695,4142.563965,4173.077148,4167.692383,4130.897461,4137.179688,4177.307617,4115.384766,4150.128418,4210.512695,4174.358887,4194.358887,0.000000,4.000000,,,,0.000000,4.000000,4.000000,4.000000,4.000000,4.000000,4.000000,4.000000,4.000000,4.000000,4.000000,4.000000,4.000000,4.000000,4.000000,100.000000,,,,,,,,,,,,,,,,,,,,,,,,,,,,,,,,,,,,,,,,,,,,,,,,,,,,,,,,,,,,,,,,,,,,,,
1605176517.759553,58.000000,0.000000,4153.333496,4147.563965,4163.461426,4146.025879,4173.589844,4172.563965,4135.641113,4144.230957,4180.000000,4118.974121,4153.846191,4205.897461,4172.563965,4188.974121,0.000000,4.000000,,,,0.000000,4.000000,4.000000,4.000000,4.000000,4.000000,4.000000,4.000000,4.000000,4.000000,4.000000,4.000000,4.000000,4.000000,4.000000,100.000000,,,,,,,,,,,,,,,,,,,,,,,,,,,,,,,,,,,,,,,,,,,,,,,,,,,,,,,,,,,,,,,,,,,,,,
1605176517.767434,59.000000,0.000000,4130.256348,4132.948730,4150.000000,4135.000000,4172.179688,4164.358887,4129.487305,4138.717773,4179.358887,4111.410156,4147.692383,4199.871582,4167.820313,4176.538574,0.000000,4.000000,,,,0.000000,4.000000,4.000000,4.000000,4.000000,4.000000,4.000000,4.000000,4.000000,4.000000,4.000000,4.000000,4.000000,4.000000,4.000000,100.000000,,,,,,,,,,,,,,,,,,,,,,,,,,,,,,,,,,,,,,,,,,,,,,,,,,,,,,,,,,,,,,,,,,,,,,
1605176517.775216,60.000000,0.000000,4130.256348,4130.384766,4148.717773,4130.128418,4167.820313,4166.794922,4136.153809,4136.282227,4176.922852,4109.615234,4143.846191,4199.230957,4163.974121,4179.230957,0.000000,4.000000,,,,0.000000,4.000000,4.000000,4.000000,4.000000,4.000000,4.000000,4.000000,4.000000,4.000000,4.000000,4.000000,4.000000,4.000000,4.000000,100.000000,,,,,,,,,,,,,,,,,,,,,,,,,,,,,,,,,,,,,,,,,,,,,,,,,,,,,,,,,,,,,,,,,,,,,,
1605176517.783098,61.000000,0.000000,4152.179688,4145.512695,4159.358887,4143.717773,4168.974121,4167.563965,4144.358887,4140.128418,4173.205078,4121.153809,4152.051270,4205.128418,4168.333496,4191.025879,0.000000,4.000000,,,,0.000000,4.000000,4.000000,4.000000,4.000000,4.000000,4.000000,4.000000,4.000000,4.000000,4.000000,4.000000,4.000000,4.000000,4.000000,100.000000,,,,,,,,,,,,,,,,,,,,,,,,,,,,,,,,,,,,,,,,,,,,,,,,,,,,,,,,,,,,,,,,,,,,,,
1605176517.790880,62.000000,0.000000,4155.000000,4145.256348,4155.128418,4150.000000,4171.538574,4158.205078,4132.820313,4137.692383,4171.666504,4128.205078,4153.589844,4205.256348,4176.922852,4187.051270,0.000000,4.000000,,,,0.000000,4.000000,4.000000,4.000000,4.000000,4.000000,4.000000,4.000000,4.000000,4.000000,4.000000,4.000000,4.000000,4.000000,4.000000,100.000000,,,,,,,,,,,,,,,,,,,,,,,,,,,,,,,,,,,,,,,,,,,,,,,,,,,,,,,,,,,,,,,,,,,,,,
1605176517.798762,63.000000,0.000000,4143.461426,4130.000000,4140.769043,4130.641113,4176.410156,4161.410156,4120.641113,4134.358887,4175.384766,4118.333496,4142.820313,4197.179688,4171.410156,4173.717773,0.000000,4.000000,,,,0.000000,4.000000,4.000000,4.000000,4.000000,4.000000,4.000000,4.000000,4.000000,4.000000,4.000000,4.000000,4.000000,4.000000,4.000000,100.000000,,,,,,,,,,,,,,,,,,,,,,,,,,,,,,,,,,,,,,,,,,,,,,,,,,,,,,,,,,,,,,,,,,,,,,
1605176517.806543,64.000000,0.000000,4145.512695,4135.384766,4143.974121,4124.615234,4181.153809,4171.666504,4129.871582,4140.128418,4177.563965,4113.333496,4142.051270,4197.436035,4168.717773,4176.922852,3783.000000,4.000000,,,,0.000000,4.000000,4.000000,4.000000,4.000000,4.000000,4.000000,4.000000,4.000000,4.000000,4.000000,4.000000,4.000000,4.000000,4.000000,100.000000,,,,,,,,,,,,,,,,,,,,,,,,,,,,,,,,,,,,,,,,,,,,,,,,,,,,,,,,,,,,,,,,,,,,,,
1605176517.814525,65.000000,0.000000,4149.487305,4157.051270,4169.487305,4158.205078,4172.307617,4173.333496,4150.384766,4153.461426,4179.743652,4137.436035,4153.205078,4208.717773,4185.512695,4192.436035,4059.000000,4.000000,,,,0.000000,4.000000,4.000000,4.000000,4.000000,4.000000,4.000000,4.000000,4.000000,4.000000,4.000000,4.000000,4.000000,4.000000,4.000000,100.000000,,,,,,,,,,,,,,,,,,,,,,,,,,,,,,,,,,,,,,,,,,,,,,,,,,,,,,,,,,,,,,,,,,,,,,
1605176517.822408,66.000000,0.000000,4146.666504,4159.487305,4178.461426,4180.128418,4168.589844,4180.512695,4167.307617,4164.871582,4185.256348,4163.333496,4158.461426,4209.358887,4190.641113,4192.179688,3795.000000,4.000000,,,,0.000000,4.000000,4.000000,4.000000,4.000000,4.000000,4.000000,4.000000,4.000000,4.000000,4.000000,4.000000,4.000000,4.000000,4.000000,100.000000,,,,,,,,,,,,,,,,,,,,,,,,,,,,,,,,,,,,,,,,,,,,,,,,,,,,,,,,,,,,,,,,,,,,,,
1605176517.830390,67.000000,0.000000,4151.153809,4153.589844,4162.820313,4163.846191,4178.461426,4189.102539,4172.692383,4166.410156,4186.025879,4160.641113,4157.307617,4197.436035,4181.538574,4181.282227,4242.000000,4.000000,,,,0.000000,4.000000,4.000000,4.000000,4.000000,4.000000,4.000000,4.000000,4.000000,4.000000,4.000000,4.000000,4.000000,4.000000,4.000000,100.000000,,,,,,,,,,,,,,,,,,,,,,,,,,,,,,,,,,,,,,,,,,,,,,,,,,,,,,,,,,,,,,,,,,,,,,
1605176517.838272,68.000000,0.000000,4152.051270,4150.769043,4149.487305,4140.512695,4181.410156,4175.897461,4153.974121,4154.615234,4179.871582,4145.128418,4152.051270,4192.051270,4178.077148,4179.102539,3532.000000,4.000000,,,,0.000000,4.000000,4.000000,4.000000,4.000000,4.000000,4.000000,4.000000,4.000000,4.000000,4.000000,4.000000,4.000000,4.000000,4.000000,100.000000,,,,,,,,,,,,,,,,,,,,,,,,,,,,,,,,,,,,,,,,,,,,,,,,,,,,,,,,,,,,,,,,,,,,,,
1605176517.846254,69.000000,0.000000,4139.871582,4139.743652,4142.436035,4128.589844,4178.589844,4159.487305,4128.077148,4137.051270,4169.102539,4133.461426,4143.205078,4187.179688,4172.307617,4177.179688,3379.000000,4.000000,,,,0.000000,4.000000,4.000000,4.000000,4.000000,4.000000,4.000000,4.000000,4.000000,4.000000,4.000000,4.000000,4.000000,4.000000,4.000000,100.000000,,,,,,,,,,,,,,,,,,,,,,,,,,,,,,,,,,,,,,,,,,,,,,,,,,,,,,,,,,,,,,,,,,,,,,
1605176517.854136,70.000000,0.000000,4144.230957,4144.102539,4147.051270,4141.153809,4182.436035,4171.282227,4135.128418,4136.922852,4167.820313,4131.282227,4143.846191,4185.256348,4172.563965,4175.000000,4080.000000,4.000000,,,,0.000000,4.000000,4.000000,4.000000,4.000000,4.000000,4.000000,4.000000,4.000000,4.000000,4.000000,4.000000,4.000000,4.000000,4.000000,100.000000,,,,,,,,,,,,,,,,,,,,,,,,,,,,,,,,,,,,,,,,,,,,,,,,,,,,,,,,,,,,,,,,,,,,,,
1605176517.862118,71.000000,0.000000,4160.769043,4169.743652,4168.717773,4171.025879,4187.563965,4186.025879,4157.179688,4155.641113,4177.307617,4149.102539,4152.563965,4195.897461,4190.128418,4185.256348,3695.000000,4.000000,,,,0.000000,4.000000,4.000000,4.000000,4.000000,4.000000,4.000000,4.000000,4.000000,4.000000,4.000000,4.000000,4.000000,4.000000,4.000000,100.000000,,,,,,,,,,,,,,,,,,,,,,,,,,,,,,,,,,,,,,,,,,,,,,,,,,,,,,,,,,,,,,,,,,,,,,
1605176517.869999,72.000000,0.000000,4161.153809,4182.051270,4182.563965,4184.615234,4185.641113,4179.615234,4156.025879,4163.589844,4185.769043,4169.743652,4157.563965,4205.512695,4200.128418,4196.922852,1263.000000,4.000000,,,,0.000000,4.000000,4.000000,4.000000,4.000000,4.000000,4.000000,4.000000,4.000000,4.000000,4.000000,4.000000,4.000000,4.000000,4.000000,100.000000,1.444064,0.250848,0.757266,0.333667,0.444263,2.175915,0.442753,0.640363,0.522005,0.538860,2.302051,0.331795,1.002195,0.520227,0.503084,2.335973,0.761368,1.273239,1.153354,0.962445,0.606330,0.146902,0.200928,0.149900,0.092044,0.877161,0.242354,0.798805,0.425111,0.498525,3.691587,0.765662,1.729288,0.717749,0.789580,3.798350,2.417507,1.436047,1.083460,0.918549,0.688293,0.376473,0.144232,0.102129,0.110089,13.080961,2.134348,1.661287,0.976450,1.034558,2.072807,0.778868,0.259133,0.182265,0.230112,0.942789,0.383935,0.236085,0.097893,0.187431,2.077399,0.787568,0.706469,0.378510,0.432759,0.868962,0.405993,0.538330,0.223356,0.294509
1605176517.877981,73.000000,0.000000,4155.512695,4171.025879,4171.922852,4171.025879,4185.256348,4175.512695,4149.743652,4152.051270,4184.358887,4166.666504,4155.641113,4202.179688,4187.307617,4188.717773,4402.000000,4.000000,,,,0.000000,4.000000,4.000000,4.000000,4.000000,4.000000,4.000000,4.000000,4.000000,4.000000,4.000000,4.000000,4.000000,4.000000,4.000000,100.000000,,,,,,,,,,,,,,,,,,,,,,,,,,,,,,,,,,,,,,,,,,,,,,,,,,,,,,,,,,,,,,,,,,,,,,
1605176517.885863,74.000000,0.000000,4153.205078,4162.948730,4160.641113,4153.846191,4189.743652,4177.820313,4154.487305,4141.666504,4179.230957,4153.461426,4151.922852,4196.025879,4178.717773,4178.333496,3367.000000,4.000000,,,,0.000000,4.000000,4.000000,4.000000,4.000000,4.000000,4.000000,4.000000,4.000000,4.000000,4.000000,4.000000,4.000000,4.000000,4.000000,100.000000,,,,,,,,,,,,,,,,,,,,,,,,,,,,,,,,,,,,,,,,,,,,,,,,,,,,,,,,,,,,,,,,,,,,,,
1605176517.893845,75.000000,0.000000,4160.641113,4173.077148,4168.589844,4159.871582,4194.102539,4177.692383,4160.769043,4146.794922,4179.487305,4161.025879,4156.282227,4199.615234,4187.436035,4184.615234,2864.000000,4.000000,,,,0.000000,4.000000,4.000000,4.000000,4.000000,4.000000,4.000000,4.000000,4.000000,4.000000,4.000000,4.000000,4.000000,4.000000,4.000000,100.000000,,,,,,,,,,,,,,,,,,,,,,,,,,,,,,,,,,,,,,,,,,,,,,,,,,,,,,,,,,,,,,,,,,,,,,
1605176517.901727,76.000000,0.000000,4175.000000,4187.820313,4183.846191,4180.000000,4190.641113,4178.589844,4168.077148,4155.384766,4183.077148,4180.769043,4167.563965,4207.436035,4197.436035,4193.205078,2175.000000,4.000000,,,,0.000000,4.000000,4.000000,4.000000,4.000000,4.000000,4.000000,4.000000,4.000000,4.000000,4.000000,4.000000,4.000000,4.000000,4.000000,100.000000,,,,,,,,,,,,,,,,,,,,,,,,,,,,,,,,,,,,,,,,,,,,,,,,,,,,,,,,,,,,,,,,,,,,,,
1605176517.909509,77.000000,0.000000,4172.948730,4189.358887,4188.589844,4188.461426,4186.794922,4176.922852,4172.692383,4157.051270,4186.922852,4193.974121,4169.615234,4208.974121,4202.436035,4194.871582,2347.000000,4.000000,,,,0.000000,4.000000,4.000000,4.000000,4.000000,4.000000,4.000000,4.000000,4.000000,4.000000,4.000000,4.000000,4.000000,4.000000,4.000000,100.000000,,,,,,,,,,,,,,,,,,,,,,,,,,,,,,,,,,,,,,,,,,,,,,,,,,,,,,,,,,,,,,,,,,,,,,
1605176517.917391,78.000000,0.000000,4151.538574,4169.743652,4175.641113,4173.846191,4191.025879,4172.179688,4158.333496,4148.974121,4184.871582,4190.128418,4160.641113,4201.153809,4196.025879,4188.974121,3367.000000,4.000000,,,,0.000000,4.000000,4.000000,4.000000,4.000000,4.000000,4.000000,4.000000,4.000000,4.000000,4.000000,4.000000,4.000000,4.000000,4.000000,100.000000,,,,,,,,,,,,,,,,,,,,,,,,,,,,,,,,,,,,,,,,,,,,,,,,,,,,,,,,,,,,,,,,,,,,,,
1605176517.925173,79.000000,0.000000,4145.512695,4157.307617,4160.000000,4152.563965,4192.820313,4173.333496,4139.102539,4132.820313,4174.615234,4169.615234,4150.256348,4190.512695,4181.922852,4180.256348,2864.000000,4.000000,,,,0.000000,4.000000,4.000000,4.000000,4.000000,4.000000,4.000000,4.000000,4.000000,4.000000,4.000000,4.000000,4.000000,4.000000,4.000000,100.000000,,,,,,,,,,,,,,,,,,,,,,,,,,,,,,,,,,,,,,,,,,,,,,,,,,,,,,,,,,,,,,,,,,,,,,
1605176517.933054,80.000000,0.000000,4154.230957,4163.717773,4155.000000,4145.769043,4187.563965,4174.743652,4135.641113,4122.051270,4171.922852,4150.000000,4143.846191,4186.538574,4176.410156,4173.589844,2175.000000,4.000000,,,,0.000000,4.000000,4.000000,4.000000,4.000000,4.000000,4.000000,4.000000,4.000000,4.000000,4.000000,4.000000,4.000000,4.000000,4.000000,100.000000,,,,,,,,,,,,,,,,,,,,,,,,,,,,,,,,,,,,,,,,,,,,,,,,,,,,,,,,,,,,,,,,,,,,,,
1605176517.940836,81.000000,0.000000,4157.436035,4170.512695,4162.051270,4159.358887,4185.641113,4181.025879,4146.025879,4131.153809,4180.256348,4153.589844,4148.589844,4191.282227,4186.282227,4178.717773,2347.000000,4.000000,,,,0.000000,4.000000,4.000000,4.000000,4.000000,4.000000,4.000000,4.000000,4.000000,4.000000,4.000000,4.000000,4.000000,4.000000,4.000000,100.000000,,,,,,,,,,,,,,,,,,,,,,,,,,,,,,,,,,,,,,,,,,,,,,,,,,,,,,,,,,,,,,,,,,,,,,
1605176517.948718,82.000000,0.000000,4167.948730,4177.563965,4176.410156,4176.794922,4187.948730,4192.948730,4159.358887,4145.769043,4185.256348,4171.922852,4157.563965,4198.717773,4195.641113,4190.000000,3367.000000,4.000000,,,,0.000000,4.000000,4.000000,4.000000,4.000000,4.000000,4.000000,4.000000,4.000000,4.000000,4.000000,4.000000,4.000000,4.000000,4.000000,100.000000,,,,,,,,,,,,,,,,,,,,,,,,,,,,,,,,,,,,,,,,,,,,,,,,,,,,,,,,,,,,,,,,,,,,,,
1605176517.956500,83.000000,0.000000,4166.538574,4179.743652,4182.563965,4176.153809,4187.692383,4190.641113,4164.871582,4147.692383,4184.487305,4178.589844,4157.436035,4203.205078,4195.769043,4190.384766,2864.000000,4.000000,,,,0.000000,4.000000,4.000000,4.000000,4.000000,4.000000,4.000000,4.000000,4.000000,4.000000,4.000000,4.000000,4.000000,4.000000,4.000000,100.000000,,,,,,,,,,,,,,,,,,,,,,,,,,,,,,,,,,,,,,,,,,,,,,,,,,,,,,,,,,,,,,,,,,,,,,
1605176517.964381,84.000000,0.000000,4145.000000,4165.897461,4173.205078,4165.128418,4185.641113,4174.615234,4153.974121,4138.205078,4183.846191,4171.025879,4152.820313,4200.128418,4190.128418,4181.410156,2175.000000,4.000000,,,,0.000000,4.000000,4.000000,4.000000,4.000000,4.000000,4.000000,4.000000,4.000000,4.000000,4.000000,4.000000,4.000000,4.000000,4.000000,100.000000,,,,,,,,,,,,,,,,,,,,,,,,,,,,,,,,,,,,,,,,,,,,,,,,,,,,,,,,,,,,,,,,,,,,,,
1605176517.972163,85.000000,0.000000,4150.897461,4167.307617,4166.153809,4164.102539,4188.461426,4171.282227,4142.563965,4129.487305,4178.846191,4164.871582,4152.692383,4194.102539,4183.974121,4177.307617,2347.000000,4.000000,,,,0.000000,4.000000,4.000000,4.000000,4.000000,4.000000,4.000000,4.000000,4.000000,4.000000,4.000000,4.000000,4.000000,4.000000,4.000000,100.000000,,,,,,,,,,,,,,,,,,,,,,,,,,,,,,,,,,,,,,,,,,,,,,,,,,,,,,,,,,,,,,,,,,,,,,
1605176517.980045,86.000000,0.000000,4178.846191,4195.641113,4174.230957,4177.051270,4195.769043,4175.769043,4148.717773,4130.000000,4175.769043,4160.384766,4149.871582,4192.948730,4178.077148,4179.102539,3367.000000,4.000000,,,,0.000000,4.000000,4.000000,4.000000,4.000000,4.000000,4.000000,4.000000,4.000000,4.000000,4.000000,4.000000,4.000000,4.000000,4.000000,100.000000,,,,,,,,,,,,,,,,,,,,,,,,,,,,,,,,,,,,,,,,,,,,,,,,,,,,,,,,,,,,,,,,,,,,,,
1605176517.987826,87.000000,0.000000,4188.077148,4211.666504,4187.820313,4193.461426,4197.307617,4179.615234,4159.358887,4139.358887,4182.820313,4165.641113,4150.897461,4199.487305,4177.820313,4180.769043,2864.000000,4.000000,,,,0.000000,4.000000,4.000000,4.000000,4.000000,4.000000,4.000000,4.000000,4.000000,4.000000,4.000000,4.000000,4.000000,4.000000,4.000000,100.000000,,,,,,,,,,,,,,,,,,,,,,,,,,,,,,,,,,,,,,,,,,,,,,,,,,,,,,,,,,,,,,,,,,,,,,
1605176517.995708,88.000000,0.000000,4181.538574,4206.922852,4187.436035,4193.589844,4191.922852,4180.384766,4152.948730,4143.461426,4186.282227,4178.077148,4156.410156,4199.487305,4180.897461,4181.282227,2175.000000,4.000000,,,,0.000000,4.000000,4.000000,4.000000,4.000000,4.000000,4.000000,4.000000,4.000000,4.000000,4.000000,4.000000,4.000000,4.000000,4.000000,100.000000,1.560132,0.324693,0.834873,0.353209,0.468498,2.420907,0.504250,0.739454,0.548138,0.539661,2.414152,0.433704,1.141650,0.570081,0.531859,2.591749,0.790480,1.580317,1.271426,0.979827,0.681851,0.129882,0.233924,0.169049,0.089078,1.113269,0.216139,0.863193,0.440833,0.498720,4.345650,0.723642,1.650303,0.739099,0.742502,4.087985,2.160968,1.135678,1.039679,0.865209,0.811219,0.310405,0.121524,0.112579,0.111778,14.559150,1.596879,1.349928,1.064767,1.043524,2.535841,0.575243,0.229344,0.197114,0.226987,0.992532,0.331882,0.269933,0.097852,0.193456,2.080078,0.618401,0.615258,0.364764,0.433482,0.994324,0.270073,0.619799,0.224656,0.290887
1605176518.003490,89.000000,0.000000,4174.743652,4203.717773,4174.743652,4183.717773,4190.897461,4172.179688,4141.666504,4134.358887,4182.948730,4173.205078,4153.077148,4191.922852,4177.820313,4178.077148,2347.000000,4.000000,,,,0.000000,4.000000,4.000000,4.000000,4.000000,4.000000,4.000000,4.000000,4.000000,4.000000,4.000000,4.000000,4.000000,4.000000,4.000000,100.000000,,,,,,,,,,,,,,,,,,,,,,,,,,,,,,,,,,,,,,,,,,,,,,,,,,,,,,,,,,,,,,,,,,,,,,
1605176518.011371,90.000000,0.000000,4176.922852,4208.974121,4180.641113,4193.974121,4194.871582,4180.512695,4159.615234,4141.153809,4184.615234,4175.256348,4155.641113,4194.230957,4183.333496,4180.769043,3367.000000,4.000000,,,,0.000000,4.000000,4.000000,4.000000,4.000000,4.000000,4.000000,4.000000,4.000000,4.000000,4.000000,4.000000,4.000000,4.000000,4.000000,100.000000,,,,,,,,,,,,,,,,,,,,,,,,,,,,,,,,,,,,,,,,,,,,,,,,,,,,,,,,,,,,,,,,,,,,,,
1605176518.019153,91.000000,0.000000,4180.769043,4207.692383,4191.538574,4196.410156,4196.794922,4195.128418,4178.333496,4151.666504,4188.333496,4192.948730,4165.641113,4199.102539,4188.717773,4187.051270,2864.000000,4.000000,,,,0.000000,4.000000,4.000000,4.000000,4.000000,4.000000,4.000000,4.000000,4.000000,4.000000,4.000000,4.000000,4.000000,4.000000,4.000000,100.000000,,,,,,,,,,,,,,,,,,,,,,,,,,,,,,,,,,,,,,,,,,,,,,,,,,,,,,,,,,,,,,,,,,,,,,
1605176518.027135,92.000000,0.000000,4176.025879,4200.897461,4177.948730,4171.794922,4200.769043,4180.897461,4159.230957,4139.487305,4185.384766,4192.692383,4164.102539,4196.794922,4179.615234,4182.820313,2175.000000,4.000000,,,,0.000000,4.000000,4.000000,4.000000,4.000000,4.000000,4.000000,4.000000,4.000000,4.000000,4.000000,4.000000,4.000000,4.000000,4.000000,100.000000,,,,,,,,,,,,,,,,,,,,,,,,,,,,,,,,,,,,,,,,,,,,,,,,,,,,,,,,,,,,,,,,,,,,,,
1605176518.035017,93.000000,0.000000,4165.641113,4192.563965,4158.846191,4157.948730,4200.000000,4167.051270,4136.410156,4123.077148,4181.794922,4173.846191,4152.563965,4192.179688,4166.410156,4171.410156,2347.000000,4.000000,,,,0.000000,4.000000,4.000000,4.000000,4.000000,4.000000,4.000000,4.000000,4.000000,4.000000,4.000000,4.000000,4.000000,4.000000,4.000000,100.000000,,,,,,,,,,,,,,,,,,,,,,,,,,,,,,,,,,,,,,,,,,,,,,,,,,,,,,,,,,,,,,,,,,,,,,
1605176518.042998,94.000000,0.000000,4166.410156,4192.692383,4168.333496,4178.077148,4192.436035,4177.051270,4146.282227,4131.922852,4183.333496,4175.128418,4155.128418,4195.769043,4172.307617,4176.410156,3367.000000,4.000000,,,,0.000000,4.000000,4.000000,4.000000,4.000000,4.000000,4.000000,4.000000,4.000000,4.000000,4.000000,4.000000,4.000000,4.000000,4.000000,100.000000,,,,,,,,,,,,,,,,,,,,,,,,,,,,,,,,,,,,,,,,,,,,,,,,,,,,,,,,,,,,,,,,,,,,,,
1605176518.050880,95.000000,0.000000,4169.230957,4194.743652,4182.051270,4187.051270,4190.769043,4170.384766,4149.487305,4142.563965,4184.743652,4182.436035,4162.948730,4200.512695,4183.846191,4184.487305,2864.000000,4.000000,,,,0.000000,4.000000,4.000000,4.000000,4.000000,4.000000,4.000000,4.000000,4.000000,4.000000,4.000000,4.000000,4.000000,4.000000,4.000000,100.000000,,,,,,,,,,,,,,,,,,,,,,,,,,,,,,,,,,,,,,,,,,,,,,,,,,,,,,,,,,,,,,,,,,,,,,
1605176518.058862,96.000000,0.000000,4170.128418,4192.820313,4174.230957,4172.307617,4195.897461,4163.205078,4137.051270,4135.256348,4183.077148,4174.358887,4160.256348,4197.307617,4180.128418,4180.128418,2175.000000,4.000000,,,,0.000000,4.000000,4.000000,4.000000,4.000000,4.000000,4.000000,4.000000,4.000000,4.000000,4.000000,4.000000,4.000000,4.000000,4.000000,100.000000,,,,,,,,,,,,,,,,,,,,,,,,,,,,,,,,,,,,,,,,,,,,,,,,,,,,,,,,,,,,,,,,,,,,,,
1605176518.066744,97.000000,0.000000,4178.974121,4197.563965,4173.974121,4172.948730,4197.179688,4189.487305,4148.717773,4136.410156,4184.487305,4179.102539,4161.794922,4199.615234,4178.461426,4183.717773,2347.000000,4.000000,,,,0.000000,4.000000,4.000000,4.000000,4.000000,4.000000,4.000000,4.000000,4.000000,4.000000,4.000000,4.000000,4.000000,4.000000,4.000000,100.000000,,,,,,,,,,,,,,,,,,,,,,,,,,,,,,,,,,,,,,,,,,,,,,,,,,,,,,,,,,,,,,,,,,,,,,
1605176518.074526,98.000000,0.000000,4183.205078,4206.666504,4192.436035,4193.717773,4194.487305,4201.410156,4175.384766,4154.358887,4191.025879,4202.820313,4172.436035,4208.974121,4190.512695,4197.563965,3367.000000,4.000000,,,,0.000000,4.000000,4.000000,4.000000,4.000000,4.000000,4.000000,4.000000,4.000000,4.000000,4.000000,4.000000,4.000000,4.000000,4.000000,100.000000,,,,,,,,,,,,,,,,,,,,,,,,,,,,,,,,,,,,,,,,,,,,,,,,,,,,,,,,,,,,,,,,,,,,,,
1605176518.082407,99.000000,0.000000,4168.077148,4202.563965,4194.743652,4189.743652,4195.256348,4178.974121,4170.000000,4153.717773,4191.666504,4210.769043,4173.461426,4205.897461,4189.743652,4192.051270,2864.000000,4.000000,,,,0.000000,4.000000,4.000000,4.000000,4.000000,4.000000,4.000000,4.000000,4.000000,4.000000,4.000000,4.000000,4.000000,4.000000,4.000000,100.000000,,,,,,,,,,,,,,,,,,,,,,,,,,,,,,,,,,,,,,,,,,,,,,,,,,,,,,,,,,,,,,,,,,,,,,
1605176518.090189,100.000000,0.000000,4152.179688,4182.820313,4168.461426,4154.102539,4196.025879,4176.282227,4152.563965,4133.461426,4185.000000,4185.512695,4158.846191,4193.717773,4167.692383,4174.102539,2175.000000,4.000000,,,,0.000000,4.000000,4.000000,4.000000,4.000000,4.000000,4.000000,4.000000,4.000000,4.000000,4.000000,4.000000,4.000000,4.000000,4.000000,100.000000,,,,,,,,,,,,,,,,,,,,,,,,,,,,,,,,,,,,,,,,,,,,,,,,,,,,,,,,,,,,,,,,,,,,,,
1605176518.098171,101.000000,0.000000,4154.230957,4179.358887,4163.846191,4153.205078,4194.358887,4196.153809,4171.153809,4141.538574,4186.025879,4177.948730,4156.153809,4200.128418,4170.512695,4183.077148,2347.000000,4.000000,,,,0.000000,4.000000,4.000000,4.000000,4.000000,4.000000,4.000000,4.000000,4.000000,4.000000,4.000000,4.000000,4.000000,4.000000,4.000000,100.000000,,,,,,,,,,,,,,,,,,,,,,,,,,,,,,,,,,,,,,,,,,,,,,,,,,,,,,,,,,,,,,,,,,,,,,
1605176518.106053,102.000000,0.000000,4153.461426,4187.307617,4183.717773,4177.948730,4194.358887,4194.102539,4191.025879,4162.692383,4192.051270,4204.102539,4170.128418,4210.641113,4188.077148,4195.384766,3367.000000,4.000000,,,,0.000000,4.000000,4.000000,4.000000,4.000000,4.000000,4.000000,4.000000,4.000000,4.000000,4.000000,4.000000,4.000000,4.000000,4.000000,100.000000,,,,,,,,,,,,,,,,,,,,,,,,,,,,,,,,,,,,,,,,,,,,,,,,,,,,,,,,,,,,,,,,,,,,,,
1605176518.114035,103.000000,0.000000,4141.794922,4177.820313,4175.256348,4165.769043,4193.846191,4176.538574,4176.025879,4151.025879,4187.436035,4202.436035,4170.256348,4199.871582,4175.384766,4179.615234,2864.000000,4.000000,,,,0.000000,4.000000,4.000000,4.000000,4.000000,4.000000,4.000000,4.000000,4.000000,4.000000,4.000000,4.000000,4.000000,4.000000,4.000000,100.000000,,,,,,,,,,,,,,,,,,,,,,,,,,,,,,,,,,,,,,,,,,,,,,,,,,,,,,,,,,,,,,,,,,,,,,
1605176518.121917,104.000000,0.000000,4153.974121,4180.128418,4164.487305,4159.871582,4190.769043,4169.230957,4160.256348,4136.153809,4183.077148,4183.589844,4160.769043,4196.410156,4169.487305,4175.897461,2175.000000,4.000000,,,,0.000000,4.000000,4.000000,4.000000,4.000000,4.000000,4.000000,4.000000,4.000000,4.000000,4.000000,4.000000,4.000000,4.000000,4.000000,100.000000,1.685808,0.439637,0.963299,0.387224,0.496167,2.660914,0.571861,0.863782,0.588886,0.549361,2.356095,0.519409,1.262610,0.614456,0.567638,2.671682,0.801495,1.881018,1.378084,1.005994,0.752743,0.113966,0.249709,0.188982,0.089979,1.326500,0.225627,0.904821,0.468329,0.487586,4.839342,0.752522,1.574648,0.788714,0.680802,4.101768,1.837862,0.882066,0.941842,0.770917,0.934731,0.229900,0.107636,0.130253,0.110250,15.175746,1.219850,1.261855,1.185230,1.047535,3.038471,0.399810,0.246132,0.235691,0.225750,1.055699,0.310842,0.322507,0.112499,0.209764,1.908426,0.516837,0.556916,0.368866,0.427812,1.084125,0.182212,0.702942,0.233383,0.284310
1605176518.129899,105.000000,0.000000,4175.641113,4195.000000,4177.820313,4183.205078,4191.922852,4179.358887,4163.461426,4143.077148,4186.538574,4188.717773,4160.000000,4202.179688,4181.794922,4185.000000,2347.000000,4.000000,,,,0.000000,4.000000,4.000000,4.000000,4.000000,4.000000,4.000000,4.000000,4.000000,4.000000,4.000000,4.000000,4.000000,4.000000,4.000000,100.000000,,,,,,,,,,,,,,,,,,,,,,,,,,,,,,,,,,,,,,,,,,,,,,,,,,,,,,,,,,,,,,,,,,,,,,
1605176518.137781,106.000000,0.000000,4172.692383,4196.282227,4188.461426,4188.077148,4198.333496,4204.871582,4177.948730,4157.179688,4190.512695,4203.846191,4169.230957,4203.077148,4182.820313,4185.256348,3367.000000,4.000000,,,,0.000000,4.000000,4.000000,4.000000,4.000000,4.000000,4.000000,4.000000,4.000000,4.000000,4.000000,4.000000,4.000000,4.000000,4.000000,100.000000,,,,,,,,,,,,,,,,,,,,,,,,,,,,,,,,,,,,,,,,,,,,,,,,,,,,,,,,,,,,,,,,,,,,,,
1605176518.145763,107.000000,0.000000,4163.461426,4194.102539,4186.410156,4176.666504,4200.256348,4208.077148,4186.538574,4164.615234,4190.256348,4215.384766,4175.897461,4205.000000,4181.922852,4185.256348,2864.000000,4.000000,,,,0.000000,4.000000,4.000000,4.000000,4.000000,4.000000,4.000000,4.000000,4.000000,4.000000,4.000000,4.000000,4.000000,4.000000,4.000000,100.000000,,,,,,,,,,,,,,,,,,,,,,,,,,,,,,,,,,,,,,,,,,,,,,,,,,,,,,,,,,,,,,,,,,,,,,
1605176518.153646,108.000000,0.000000,4159.743652,4194.230957,4181.794922,4177.179688,4199.743652,4176.666504,4172.692383,4156.666504,4185.641113,4209.102539,4166.666504,4203.205078,4181.794922,4183.461426,2175.000000,4.000000,,,,0.000000,4.000000,4.000000,4.000000,4.000000,4.000000,4.000000,4.000000,4.000000,4.000000,4.000000,4.000000,4.000000,4.000000,4.000000,100.000000,,,,,,,,,,,,,,,,,,,,,,,,,,,,,,,,,,,,,,,,,,,,,,,,,,,,,,,,,,,,,,,,,,,,,,
1605176518.161627,109.000000,0.000000,4161.025879,4194.230957,4183.077148,4182.307617,4200.512695,4167.051270,4164.230957,4152.307617,4188.333496,4199.358887,4161.922852,4198.974121,4177.307617,4181.025879,2347.000000,4.000000,,,,0.000000,4.000000,4.000000,4.000000,4.000000,4.000000,4.000000,4.000000,4.000000,4.000000,4.000000,4.000000,4.000000,4.000000,4.000000,100.000000,,,,,,,,,,,,,,,,,,,,,,,,,,,,,,,,,,,,,,,,,,,,,,,,,,,,,,,,,,,,,,,,,,,,,,
1605176518.169509,110.000000,0.000000,4172.307617,4199.487305,4191.538574,4184.230957,4201.153809,4197.179688,4181.538574,4164.358887,4196.538574,4217.948730,4173.589844,4204.102539,4183.589844,4189.871582,3367.000000,4.000000,,,,0.000000,4.000000,4.000000,4.000000,4.000000,4.000000,4.000000,4.000000,4.000000,4.000000,4.000000,4.000000,4.000000,4.000000,4.000000,100.000000,,,,,,,,,,,,,,,,,,,,,,,,,,,,,,,,,,,,,,,,,,,,,,,,,,,,,,,,,,,,,,,,,,,,,,
1605176518.177491,111.000000,0.000000,4171.794922,4201.153809,4195.769043,4187.179688,4200.256348,4202.692383,4188.974121,4168.461426,4196.538574,4246.922852,4183.333496,4207.051270,4193.333496,4195.897461,2864.000000,4.000000,,,,0.000000,4.000000,4.000000,4.000000,4.000000,4.000000,4.000000,4.000000,4.000000,4.000000,4.000000,4.000000,4.000000,4.000000,4.000000,100.000000,,,,,,,,,,,,,,,,,,,,,,,,,,,,,,,,,,,,,,,,,,,,,,,,,,,,,,,,,,,,,,,,,,,,,,
1605176518.185373,112.000000,0.000000,4153.717773,4189.358887,4190.128418,4186.666504,4197.563965,4178.461426,4181.025879,4162.948730,4193.974121,4243.205078,4180.256348,4202.948730,4188.589844,4187.948730,2175.000000,4.000000,,,,0.000000,4.000000,4.000000,4.000000,4.000000,4.000000,4.000000,4.000000,4.000000,4.000000,4.000000,4.000000,4.000000,4.000000,4.000000,100.000000,,,,,,,,,,,,,,,,,,,,,,,,,,,,,,,,,,,,,,,,,,,,,,,,,,,,,,,,,,,,,,,,,,,,,,
1605176518.193355,113.000000,0.000000,4161.025879,4193.717773,4193.717773,4188.974121,4198.846191,4181.794922,4186.922852,4173.974121,4197.692383,4234.615234,4176.794922,4208.717773,4193.589844,4192.436035,2347.000000,4.000000,,,,0.000000,4.000000,4.000000,4.000000,4.000000,4.000000,4.000000,4.000000,4.000000,4.000000,4.000000,4.000000,4.000000,4.000000,4.000000,100.000000,,,,,,,,,,,,,,,,,,,,,,,,,,,,,,,,,,,,,,,,,,,,,,,,,,,,,,,,,,,,,,,,,,,,,,
1605176518.201237,114.000000,0.000000,4181.538574,4205.128418,4197.307617,4187.307617,4202.179688,4194.743652,4183.717773,4179.358887,4200.000000,4248.717773,4178.717773,4212.692383,4205.512695,4202.307617,3367.000000,4.000000,,,,0.000000,4.000000,4.000000,4.000000,4.000000,4.000000,4.000000,4.000000,4.000000,4.000000,4.000000,4.000000,4.000000,4.000000,4.000000,100.000000,,,,,,,,,,,,,,,,,,,,,,,,,,,,,,,,,,,,,,,,,,,,,,,,,,,,,,,,,,,,,,,,,,,,,,
1605176518.209218,115.000000,0.000000,4174.358887,4201.538574,4192.820313,4182.692383,4203.461426,4195.384766,4176.410156,4170.897461,4202.051270,4263.846191,4185.000000,4207.692383,4202.563965,4199.743652,2864.000000,4.000000,,,,0.000000,4.000000,4.000000,4.000000,4.000000,4.000000,4.000000,4.000000,4.000000,4.000000,4.000000,4.000000,4.000000,4.000000,4.000000,100.000000,,,,,,,,,,,,,,,,,,,,,,,,,,,,,,,,,,,,,,,,,,,,,,,,,,,,,,,,,,,,,,,,,,,,,,
1605176518.217100,116.000000,0.000000,4159.615234,4192.948730,4191.922852,4182.051270,4201.282227,4188.589844,4176.282227,4161.282227,4199.487305,4260.256348,4183.333496,4204.230957,4191.794922,4191.538574,2175.000000,4.000000,,,,0.000000,4.000000,4.000000,4.000000,4.000000,4.000000,4.000000,4.000000,4.000000,4.000000,4.000000,4.000000,4.000000,4.000000,4.000000,100.000000,,,,,,,,,,,,,,,,,,,,,,,,,,,,,,,,,,,,,,,,,,,,,,,,,,,,,,,,,,,,,,,,,,,,,,
1605176518.224882,117.000000,0.000000,4164.615234,4193.974121,4190.256348,4181.538574,4197.051270,4186.153809,4172.820313,4156.922852,4191.282227,4245.000000,4174.358887,4205.769043,4189.743652,4190.000000,2347.000000,4.000000,,,,0.000000,4.000000,4.000000,4.000000,4.000000,4.000000,4.000000,4.000000,4.000000,4.000000,4.000000,4.000000,4.000000,4.000000,4.000000,100.000000,,,,,,,,,,,,,,,,,,,,,,,,,,,,,,,,,,,,,,,,,,,,,,,,,,,,,,,,,,,,,,,,,,,,,,
1605176518.232764,118.000000,0.000000,4167.692383,4200.897461,4192.948730,4185.641113,4193.846191,4190.769043,4179.743652,4166.666504,4194.871582,4247.820313,4177.563965,4210.000000,4192.820313,4198.077148,3367.000000,4.000000,,,,0.000000,4.000000,4.000000,4.000000,4.000000,4.000000,4.000000,4.000000,4.000000,4.000000,4.000000,4.000000,4.000000,4.000000,4.000000,100.000000,,,,,,,,,,,,,,,,,,,,,,,,,,,,,,,,,,,,,,,,,,,,,,,,,,,,,,,,,,,,,,,,,,,,,,
1605176518.240546,119.000000,0.000000,4160.256348,4206.153809,4203.974121,4197.307617,4193.974121,4190.256348,4194.230957,4178.717773,4204.615234,4275.769043,4191.025879,4214.358887,4194.743652,4204.487305,2864.000000,4.000000,,,,0.000000,4.000000,4.000000,4.000000,4.000000,4.000000,4.000000,4.000000,4.000000,4.000000,4.000000,4.000000,4.000000,4.000000,4.000000,100.000000,,,,,,,,,,,,,,,,,,,,,,,,,,,,,,,,,,,,,,,,,,,,,,,,,,,,,,,,,,,,,,,,,,,,,,
1605176518.248427,120.000000,0.000000,4149.871582,4196.153809,4196.282227,4189.743652,4198.974121,4180.128418,4180.512695,4168.333496,4201.538574,4282.436035,4192.436035,4210.512695,4191.666504,4197.051270,2175.000000,4.000000,,,,0.000000,4.000000,4.000000,4.000000,4.000000,4.000000,4.000000,4.000000,4.000000,4.000000,4.000000,4.000000,4.000000,4.000000,4.000000,100.000000,1.835193,0.589674,1.118988,0.445503,0.523327,2.953282,0.672504,0.997260,0.659764,0.566646,2.174387,0.575534,1.343067,0.680494,0.602764,2.608417,0.810328,2.094263,1.514380,1.032786,0.819131,0.107626,0.241867,0.204489,0.094144,1.446840,0.268936,0.931241,0.511987,0.464410,5.035858,0.834986,1.568624,0.895724,0.621742,3.845345,1.534618,0.748003,0.848698,0.667931,1.053781,0.156447,0.111445,0.157328,0.107255,15.150652,1.070865,1.413568,1.343798,1.045357,3.572004,0.279583,0.308501,0.294183,0.225889,1.174047,0.311838,0.386658,0.143782,0.229702,1.648368,0.479613,0.538908,0.399272,0.410449,1.157911,0.142887,0.761796,0.258456,0.278018
1605176518.256209,121.000000,0.000000,4153.205078,4188.077148,4181.538574,4176.282227,4197.820313,4178.717773,4162.820313,4160.000000,4198.461426,4262.307617,4187.051270,4206.794922,4192.436035,4190.512695,2347.000000,4.000000,,,,0.000000,4.000000,4.000000,4.000000,4.000000,4.000000,4.000000,4.000000,4.000000,4.000000,4.000000,4.000000,4.000000,4.000000,4.000000,100.000000,,,,,,,,,,,,,,,,,,,,,,,,,,,,,,,,,,,,,,,,,,,,,,,,,,,,,,,,,,,,,,,,,,,,,,
1605176518.264091,122.000000,0.000000,4174.487305,4204.102539,4190.384766,4186.538574,4189.871582,4186.922852,4177.179688,4175.384766,4201.794922,4262.051270,4186.538574,4208.846191,4197.436035,4198.974121,3367.000000,4.000000,,,,0.000000,4.000000,4.000000,4.000000,4.000000,4.000000,4.000000,4.000000,4.000000,4.000000,4.000000,4.000000,4.000000,4.000000,4.000000,100.000000,,,,,,,,,,,,,,,,,,,,,,,,,,,,,,,,,,,,,,,,,,,,,,,,,,,,,,,,,,,,,,,,,,,,,,
1605176518.271873,123.000000,0.000000,4172.692383,4202.692383,4192.179688,4186.025879,4188.077148,4179.615234,4182.948730,4177.051270,4197.179688,4266.794922,4183.974121,4208.333496,4188.077148,4200.128418,2864.000000,4.000000,,,,0.000000,4.000000,4.000000,4.000000,4.000000,4.000000,4.000000,4.000000,4.000000,4.000000,4.000000,4.000000,4.000000,4.000000,4.000000,100.000000,,,,,,,,,,,,,,,,,,,,,,,,,,,,,,,,,,,,,,,,,,,,,,,,,,,,,,,,,,,,,,,,,,,,,,
1605176518.279754,124.000000,0.000000,4149.487305,4178.846191,4176.922852,4165.128418,4195.769043,4173.717773,4171.922852,4161.410156,4190.641113,4250.769043,4177.692383,4203.205078,4176.282227,4187.820313,2175.000000,4.000000,,,,0.000000,4.000000,4.000000,4.000000,4.000000,4.000000,4.000000,4.000000,4.000000,4.000000,4.000000,4.000000,4.000000,4.000000,4.000000,100.000000,,,,,,,,,,,,,,,,,,,,,,,,,,,,,,,,,,,,,,,,,,,,,,,,,,,,,,,,,,,,,,,,,,,,,,
1605176518.287536,125.000000,0.000000,4149.358887,4186.153809,4185.128418,4173.205078,4196.666504,4181.153809,4178.717773,4166.282227,4192.820313,4251.922852,4180.128418,4204.743652,4184.487305,4195.769043,2347.000000,4.000000,,,,0.000000,4.000000,4.000000,4.000000,4.000000,4.000000,4.000000,4.000000,4.000000,4.000000,4.000000,4.000000,4.000000,4.000000,4.000000,100.000000,,,,,,,,,,,,,,,,,,,,,,,,,,,,,,,,,,,,,,,,,,,,,,,,,,,,,,,,,,,,,,,,,,,,,,
1605176518.295418,126.000000,0.000000,4169.102539,4210.641113,4200.641113,4198.589844,4186.922852,4184.230957,4186.794922,4184.871582,4199.358887,4280.256348,4189.487305,4210.769043,4196.410156,4212.948730,3367.000000,4.000000,,,,0.000000,4.000000,4.000000,4.000000,4.000000,4.000000,4.000000,4.000000,4.000000,4.000000,4.000000,4.000000,4.000000,4.000000,4.000000,100.000000,,,,,,,,,,,,,,,,,,,,,,,,,,,,,,,,,,,,,,,,,,,,,,,,,,,,,,,,,,,,,,,,,,,,,,
1605176518.303199,127.000000,0.000000,4165.641113,4197.692383,4185.128418,4186.025879,4181.922852,4184.358887,4176.666504,4180.256348,4200.256348,4279.230957,4186.666504,4204.743652,4181.666504,4197.436035,53.000000,4.000000,,,,0.000000,4.000000,4.000000,4.000000,4.000000,4.000000,4.000000,4.000000,4.000000,4.000000,4.000000,4.000000,4.000000,4.000000,4.000000,100.000000,,,,,,,,,,,,,,,,,,,,,,,,,,,,,,,,,,,,,,,,,,,,,,,,,,,,,,,,,,,,,,,,,,,,,,
1605176518.311081,0.000000,0.000000,4144.358887,4173.846191,4170.256348,4159.871582,4185.897461,4179.358887,4161.794922,4164.487305,4190.128418,4249.102539,4171.794922,4192.436035,4161.410156,4176.410156,3899.000000,4.000000,,,,0.000000,4.000000,4.000000,4.000000,4.000000,4.000000,4.000000,4.000000,4.000000,4.000000,4.000000,4.000000,4.000000,4.000000,4.000000,100.000000,,,,,,,,,,,,,,,,,,,,,,,,,,,,,,,,,,,,,,,,,,,,,,,,,,,,,,,,,,,,,,,,,,,,,,
1605176518.318862,1.000000,0.000000,4141.282227,4174.358887,4175.641113,4160.000000,4191.282227,4178.333496,4157.307617,4165.384766,4182.948730,4234.487305,4165.256348,4193.717773,4164.871582,4183.461426,3861.000000,4.000000,,,,0.000000,4.000000,4.000000,4.000000,4.000000,4.000000,4.000000,4.000000,4.000000,4.000000,4.000000,4.000000,4.000000,4.000000,4.000000,100.000000,,,,,,,,,,,,,,,,,,,,,,,,,,,,,,,,,,,,,,,,,,,,,,,,,,,,,,,,,,,,,,,,,,,,,,
1605176518.326744,2.000000,0.000000,4155.512695,4188.461426,4181.538574,4178.974121,4190.256348,4195.256348,4173.846191,4180.769043,4193.717773,4248.717773,4175.128418,4200.769043,4179.743652,4196.025879,3783.000000,4.000000,,,,0.000000,4.000000,4.000000,4.000000,4.000000,4.000000,4.000000,4.000000,4.000000,4.000000,4.000000,4.000000,4.000000,4.000000,4.000000,100.000000,,,,,,,,,,,,,,,,,,,,,,,,,,,,,,,,,,,,,,,,,,,,,,,,,,,,,,,,,,,,,,,,,,,,,,
1605176518.334525,3.000000,0.000000,4161.282227,4189.871582,4178.717773,4180.512695,4186.282227,4195.000000,4183.205078,4184.615234,4199.743652,4260.512695,4183.461426,4199.743652,4177.692383,4191.666504,4215.000000,4.000000,,,,0.000000,4.000000,4.000000,4.000000,4.000000,4.000000,4.000000,4.000000,4.000000,4.000000,4.000000,4.000000,4.000000,4.000000,4.000000,100.000000,,,,,,,,,,,,,,,,,,,,,,,,,,,,,,,,,,,,,,,,,,,,,,,,,,,,,,,,,,,,,,,,,,,,,,
1605176518.342507,4.000000,0.000000,4152.051270,4178.077148,4172.563965,4160.512695,4184.615234,4177.692383,4171.666504,4176.666504,4191.153809,4241.922852,4173.077148,4195.000000,4165.000000,4185.769043,3532.000000,4.000000,,,,0.000000,4.000000,4.000000,4.000000,4.000000,4.000000,4.000000,4.000000,4.000000,4.000000,4.000000,4.000000,4.000000,4.000000,4.000000,100.000000,,,,,,,,,,,,,,,,,,,,,,,,,,,,,,,,,,,,,,,,,,,,,,,,,,,,,,,,,,,,,,,,,,,,,,
1605176518.350389,5.000000,0.000000,4140.769043,4179.102539,4173.205078,4161.666504,4182.692383,4181.282227,4174.487305,4178.077148,4189.358887,4228.077148,4166.282227,4196.153809,4166.025879,4184.230957,3361.000000,4.000000,,,,0.000000,4.000000,4.000000,4.000000,4.000000,4.000000,4.000000,4.000000,4.000000,4.000000,4.000000,4.000000,4.000000,4.000000,4.000000,100.000000,,,,,,,,,,,,,,,,,,,,,,,,,,,,,,,,,,,,,,,,,,,,,,,,,,,,,,,,,,,,,,,,,,,,,,
1605176518.358371,6.000000,0.000000,4138.974121,4180.384766,4173.589844,4176.153809,4184.615234,4186.794922,4181.410156,4185.641113,4191.282227,4236.922852,4171.282227,4196.025879,4172.307617,4181.282227,4067.000000,4.000000,,,,0.000000,4.000000,4.000000,4.000000,4.000000,4.000000,4.000000,4.000000,4.000000,4.000000,4.000000,4.000000,4.000000,4.000000,4.000000,100.000000,,,,,,,,,,,,,,,,,,,,,,,,,,,,,,,,,,,,,,,,,,,,,,,,,,,,,,,,,,,,,,,,,,,,,,
1605176518.366353,7.000000,0.000000,4149.487305,4174.615234,4176.282227,4175.128418,4188.333496,4184.871582,4174.743652,4186.410156,4188.846191,4239.358887,4171.025879,4198.461426,4175.256348,4186.282227,3678.000000,4.000000,,,,0.000000,4.000000,4.000000,4.000000,4.000000,4.000000,4.000000,4.000000,4.000000,4.000000,4.000000,4.000000,4.000000,4.000000,4.000000,100.000000,,,,,,,,,,,,,,,,,,,,,,,,,,,,,,,,,,,,,,,,,,,,,,,,,,,,,,,,,,,,,,,,,,,,,,
1605176518.374235,8.000000,0.000000,4158.717773,4182.307617,4180.512695,4170.384766,4188.974121,4186.922852,4172.179688,4178.333496,4190.256348,4237.563965,4169.230957,4200.897461,4175.769043,4192.307617,1256.000000,4.000000,,,,0.000000,4.000000,4.000000,4.000000,4.000000,4.000000,4.000000,4.000000,4.000000,4.000000,4.000000,4.000000,4.000000,4.000000,4.000000,100.000000,1.998996,0.754730,1.275407,0.534342,0.550327,3.304812,0.828158,1.127381,0.774458,0.587088,1.925241,0.608488,1.373278,0.798032,0.632183,2.464659,0.838984,2.173485,1.725059,1.055184,0.867955,0.112530,0.211253,0.211600,0.099553,1.417955,0.326093,0.957553,0.571698,0.443350,4.798957,0.940795,1.665646,1.074170,0.587087,3.376263,1.303589,0.758141,0.817326,0.587702,1.121393,0.106347,0.136336,0.194103,0.105162,14.270679,1.110759,1.719456,1.556038,1.038919,3.923152,0.217256,0.396938,0.365502,0.228019,1.309748,0.321101,0.449059,0.190459,0.245798,1.372314,0.470990,0.549249,0.461272,0.384221,1.187636,0.139430,0.773489,0.304640,0.275961
1605176518.382118,9.000000,0.000000,4153.846191,4183.077148,4174.358887,4166.538574,4187.436035,4180.256348,4164.743652,4169.487305,4188.205078,4231.538574,4168.717773,4196.794922,4168.974121,4181.794922,4364.000000,4.000000,,,,0.000000,4.000000,4.000000,4.000000,4.000000,4.000000,4.000000,4.000000,4.000000,4.000000,4.000000,4.000000,4.000000,4.000000,4.000000,100.000000,,,,,,,,,,,,,,,,,,,,,,,,,,,,,,,,,,,,,,,,,,,,,,,,,,,,,,,,,,,,,,,,,,,,,,
1605176518.389900,10.000000,0.000000,4147.179688,4175.897461,4177.948730,4170.000000,4188.333496,4179.230957,4157.820313,4176.538574,4186.410156,4226.025879,4168.205078,4198.205078,4171.538574,4181.410156,3345.000000,4.000000,,,,0.000000,4.000000,4.000000,4.000000,4.000000,4.000000,4.000000,4.000000,4.000000,4.000000,4.000000,4.000000,4.000000,4.000000,4.000000,100.000000,,,,,,,,,,,,,,,,,,,,,,,,,,,,,,,,,,,,,,,,,,,,,,,,,,,,,,,,,,,,,,,,,,,,,,
1605176518.397882,11.000000,0.000000,4143.717773,4184.871582,4193.333496,4183.974121,4188.974121,4191.794922,4173.077148,4188.846191,4191.666504,4236.922852,4171.282227,4204.230957,4181.666504,4196.794922,2850.000000,4.000000,,,,0.000000,4.000000,4.000000,4.000000,4.000000,4.000000,4.000000,4.000000,4.000000,4.000000,4.000000,4.000000,4.000000,4.000000,4.000000,100.000000,,,,,,,,,,,,,,,,,,,,,,,,,,,,,,,,,,,,,,,,,,,,,,,,,,,,,,,,,,,,,,,,,,,,,,
1605176518.405764,12.000000,0.000000,4137.436035,4188.974121,4186.794922,4178.974121,4190.000000,4188.461426,4177.307617,4180.641113,4190.512695,4240.256348,4171.153809,4199.358887,4177.051270,4191.410156,2156.000000,4.000000,,,,0.000000,4.000000,4.000000,4.000000,4.000000,4.000000,4.000000,4.000000,4.000000,4.000000,4.000000,4.000000,4.000000,4.000000,4.000000,100.000000,,,,,,,,,,,,,,,,,,,,,,,,,,,,,,,,,,,,,,,,,,,,,,,,,,,,,,,,,,,,,,,,,,,,,,
1605176518.413746,13.000000,0.000000,4138.974121,4177.948730,4168.589844,4161.153809,4187.179688,4173.077148,4161.153809,4169.102539,4183.974121,4221.282227,4166.153809,4194.230957,4170.128418,4175.384766,2337.000000,4.000000,,,,0.000000,4.000000,4.000000,4.000000,4.000000,4.000000,4.000000,4.000000,4.000000,4.000000,4.000000,4.000000,4.000000,4.000000,4.000000,100.000000,,,,,,,,,,,,,,,,,,,,,,,,,,,,,,,,,,,,,,,,,,,,,,,,,,,,,,,,,,,,,,,,,,,,,,
1605176518.421628,14.000000,0.000000,4149.743652,4179.102539,4169.358887,4166.282227,4183.333496,4181.666504,4166.794922,4180.128418,4187.051270,4219.358887,4166.538574,4199.487305,4176.410156,4181.410156,3345.000000,4.000000,,,,0.000000,4.000000,4.000000,4.000000,4.000000,4.000000,4.000000,4.000000,4.000000,4.000000,4.000000,4.000000,4.000000,4.000000,4.000000,100.000000,,,,,,,,,,,,,,,,,,,,,,,,,,,,,,,,,,,,,,,,,,,,,,,,,,,,,,,,,,,,,,,,,,,,,,
1605176518.429610,15.000000,0.000000,4148.974121,4175.128418,4163.717773,4164.871582,4186.666504,4187.948730,4169.358887,4181.666504,4187.307617,4220.128418,4160.897461,4194.230957,4170.512695,4179.615234,2850.000000,4.000000,,,,0.000000,4.000000,4.000000,4.000000,4.000000,4.000000,4.000000,4.000000,4.000000,4.000000,4.000000,4.000000,4.000000,4.000000,4.000000,100.000000,,,,,,,,,,,,,,,,,,,,,,,,,,,,,,,,,,,,,,,,,,,,,,,,,,,,,,,,,,,,,,,,,,,,,,
1605176518.437492,16.000000,0.000000,4141.666504,4160.641113,4151.410156,4153.974121,4183.205078,4168.717773,4149.743652,4163.333496,4179.358887,4193.846191,4148.589844,4184.615234,4155.641113,4164.615234,0.000000,4.000000,,,,0.000000,4.000000,4.000000,4.000000,4.000000,4.000000,4.000000,4.000000,4.000000,4.000000,4.000000,4.000000,4.000000,4.000000,4.000000,100.000000,,,,,,,,,,,,,,,,,,,,,,,,,,,,,,,,,,,,,,,,,,,,,,,,,,,,,,,,,,,,,,,,,,,,,,
1605176518.445474,17.000000,0.000000,4144.487305,4164.743652,4162.051270,4165.641113,4170.897461,4157.692383,4147.051270,4159.871582,4178.717773,4182.692383,4151.922852,4187.179688,4162.051270,4166.538574,0.000000,4.000000,,,,0.000000,4.000000,4.000000,4.000000,4.000000,4.000000,4.000000,4.000000,4.000000,4.000000,4.000000,4.000000,4.000000,4.000000,4.000000,100.000000,,,,,,,,,,,,,,,,,,,,,,,,,,,,,,,,,,,,,,,,,,,,,,,,,,,,,,,,,,,,,,,,,,,,,,
1605176518.453356,18.000000,0.000000,4147.820313,4169.487305,4167.948730,4166.153809,4168.077148,4165.128418,4152.948730,4163.333496,4181.025879,4185.641113,4155.256348,4191.153809,4170.512695,4172.948730,0.000000,4.000000,,,,0.000000,4.000000,4.000000,4.000000,4.000000,4.000000,4.000000,4.000000,4.000000,4.000000,4.000000,4.000000,4.000000,4.000000,4.000000,100.000000,,,,,,,,,,,,,,,,,,,,,,,,,,,,,,,,,,,,,,,,,,,,,,,,,,,,,,,,,,,,,,,,,,,,,,
1605176518.461338,19.000000,0.000000,4143.333496,4160.128418,4153.333496,4147.563965,4172.307617,4167.948730,4141.922852,4153.974121,4171.922852,4164.487305,4141.538574,4185.512695,4155.384766,4163.717773,0.000000,4.000000,,,,0.000000,4.000000,4.000000,4.000000,4.000000,4.000000,4.000000,4.000000,4.000000,4.000000,4.000000,4.000000,4.000000,4.000000,4.000000,100.000000,,,,,,,,,,,,,,,,,,,,,,,,,,,,,,,,,,,,,,,,,,,,,,,,,,,,,,,,,,,,,,,,,,,,,,
1605176518.469220,20.000000,0.000000,4147.307617,4159.871582,4151.538574,4153.589844,4170.897461,4161.538574,4134.615234,4149.743652,4165.897461,4142.948730,4132.692383,4179.743652,4139.230957,4156.666504,0.000000,4.000000,,,,0.000000,4.000000,4.000000,4.000000,4.000000,4.000000,4.000000,4.000000,4.000000,4.000000,4.000000,4.000000,4.000000,4.000000,4.000000,100.000000,,,,,,,,,,,,,,,,,,,,,,,,,,,,,,,,,,,,,,,,,,,,,,,,,,,,,,,,,,,,,,,,,,,,,,
1605176518.477202,21.000000,0.000000,4173.974121,4181.025879,4170.000000,4176.922852,4169.743652,4165.000000,4145.897461,4161.410156,4172.692383,4156.153809,4140.128418,4187.563965,4158.461426,4174.358887,0.000000,4.000000,,,,0.000000,4.000000,4.000000,4.000000,4.000000,4.000000,4.000000,4.000000,4.000000,4.000000,4.000000,4.000000,4.000000,4.000000,4.000000,100.000000,,,,,,,,,,,,,,,,,,,,,,,,,,,,,,,,,,,,,,,,,,,,,,,,,,,,,,,,,,,,,,,,,,,,,,
1605176518.485083,22.000000,0.000000,4189.615234,4184.230957,4170.641113,4169.230957,4171.794922,4163.461426,4141.025879,4156.794922,4175.641113,4166.410156,4144.230957,4194.615234,4183.333496,4193.589844,0.000000,4.000000,,,,0.000000,4.000000,4.000000,4.000000,4.000000,4.000000,4.000000,4.000000,4.000000,4.000000,4.000000,4.000000,4.000000,4.000000,4.000000,100.000000,,,,,,,,,,,,,,,,,,,,,,,,,,,,,,,,,,,,,,,,,,,,,,,,,,,,,,,,,,,,,,,,,,,,,,
1605176518.493065,23.000000,0.000000,4177.692383,4155.769043,4156.538574,4147.948730,4169.102539,4154.102539,4119.743652,4142.179688,4168.717773,4150.128418,4137.948730,4189.743652,4182.179688,4195.897461,0.000000,4.000000,,,,0.000000,4.000000,4.000000,4.000000,4.000000,4.000000,4.000000,4.000000,4.000000,4.000000,4.000000,4.000000,4.000000,4.000000,4.000000,100.000000,,,,,,,,,,,,,,,,,,,,,,,,,,,,,,,,,,,,,,,,,,,,,,,,,,,,,,,,,,,,,,,,,,,,,,
1605176518.500947,24.000000,0.000000,4179.487305,4135.897461,4157.179688,4139.487305,4166.153809,4153.589844,4113.333496,4141.922852,4167.948730,4136.025879,4133.846191,4191.538574,4186.282227,4201.666504,0.000000,4.000000,,,,0.000000,4.000000,4.000000,4.000000,4.000000,4.000000,4.000000,4.000000,4.000000,4.000000,4.000000,4.000000,4.000000,4.000000,4.000000,100.000000,2.162477,0.896462,1.407526,0.640928,0.581922,3.722749,1.032889,1.235717,0.919508,0.605479,1.676203,0.628719,1.350130,0.964387,0.653791,2.326149,0.892500,2.105575,2.003489,1.070936,0.885069,0.123381,0.166662,0.208992,0.103799,1.239847,0.372935,0.989290,0.633061,0.449986,4.171119,1.037663,1.829815,1.290527,0.594294,2.778888,1.144223,0.861038,0.860698,0.547827,1.123190,0.085241,0.175262,0.234819,0.105447,12.952494,1.235822,2.013231,1.795313,1.033761,4.028483,0.200345,0.475766,0.434815,0.234173,1.425338,0.324639,0.490833,0.244293,0.252784,1.153557,0.451139,0.561475,0.544517,0.358943,1.187511,0.152093,0.723763,0.364609,0.281828
1605176518.508929,25.000000,0.000000,4215.897461,4142.436035,4169.615234,4141.666504,4168.205078,4156.410156,4124.102539,4153.205078,4172.563965,4149.102539,4139.487305,4206.922852,4213.205078,4224.743652,0.000000,4.000000,,,,0.000000,4.000000,4.000000,4.000000,4.000000,4.000000,4.000000,4.000000,4.000000,4.000000,4.000000,4.000000,4.000000,4.000000,4.000000,100.000000,,,,,,,,,,,,,,,,,,,,,,,,,,,,,,,,,,,,,,,,,,,,,,,,,,,,,,,,,,,,,,,,,,,,,,
1605176518.516811,26.000000,0.000000,4233.846191,4139.102539,4169.615234,4141.410156,4169.358887,4148.077148,4126.153809,4151.153809,4172.436035,4157.820313,4141.025879,4203.974121,4220.128418,4234.230957,0.000000,4.000000,,,,0.000000,4.000000,4.000000,4.000000,4.000000,4.000000,4.000000,4.000000,4.000000,4.000000,4.000000,4.000000,4.000000,4.000000,4.000000,100.000000,,,,,,,,,,,,,,,,,,,,,,,,,,,,,,,,,,,,,,,,,,,,,,,,,,,,,,,,,,,,,,,,,,,,,,
1605176518.524593,27.000000,0.000000,4215.128418,4121.410156,4156.922852,4132.436035,4165.641113,4140.000000,4120.769043,4136.922852,4167.820313,4138.205078,4130.897461,4191.410156,4206.153809,4220.128418,0.000000,4.000000,,,,0.000000,4.000000,4.000000,4.000000,4.000000,4.000000,4.000000,4.000000,4.000000,4.000000,4.000000,4.000000,4.000000,4.000000,4.000000,100.000000,,,,,,,,,,,,,,,,,,,,,,,,,,,,,,,,,,,,,,,,,,,,,,,,,,,,,,,,,,,,,,,,,,,,,,
1605176518.532475,28.000000,0.000000,4198.333496,4119.358887,4158.974121,4133.333496,4162.307617,4143.077148,4120.897461,4137.436035,4166.282227,4132.948730,4129.102539,4198.461426,4213.974121,4221.025879,0.000000,4.000000,,,,0.000000,4.000000,4.000000,4.000000,4.000000,4.000000,4.000000,4.000000,4.000000,4.000000,4.000000,4.000000,4.000000,4.000000,4.000000,100.000000,,,,,,,,,,,,,,,,,,,,,,,,,,,,,,,,,,,,,,,,,,,,,,,,,,,,,,,,,,,,,,,,,,,,,,
1605176518.540257,29.000000,0.000000,4195.769043,4127.179688,4170.641113,4143.974121,4167.692383,4145.641113,4115.256348,4144.487305,4169.871582,4149.230957,4137.051270,4205.128418,4223.846191,4232.948730,0.000000,4.000000,,,,0.000000,4.000000,4.000000,4.000000,4.000000,4.000000,4.000000,4.000000,4.000000,4.000000,4.000000,4.000000,4.000000,4.000000,4.000000,100.000000,,,,,,,,,,,,,,,,,,,,,,,,,,,,,,,,,,,,,,,,,,,,,,,,,,,,,,,,,,,,,,,,,,,,,,
1605176518.548138,30.000000,0.000000,4202.820313,4128.333496,4170.128418,4142.948730,4171.282227,4145.897461,4113.717773,4136.538574,4170.384766,4147.948730,4138.077148,4197.563965,4210.897461,4223.333496,0.000000,4.000000,,,,0.000000,4.000000,4.000000,4.000000,4.000000,4.000000,4.000000,4.000000,4.000000,4.000000,4.000000,4.000000,4.000000,4.000000,4.000000,100.000000,,,,,,,,,,,,,,,,,,,,,,,,,,,,,,,,,,,,,,,,,,,,,,,,,,,,,,,,,,,,,,,,,,,,,,
1605176518.555920,31.000000,0.000000,4193.974121,4114.487305,4153.974121,4125.512695,4163.333496,4145.384766,4118.846191,4124.615234,4165.512695,4123.717773,4127.948730,4192.436035,4196.153809,4205.897461,0.000000,4.000000,,,,0.000000,4.000000,4.000000,4.000000,4.000000,4.000000,4.000000,4.000000,4.000000,4.000000,4.000000,4.000000,4.000000,4.000000,4.000000,100.000000,,,,,,,,,,,,,,,,,,,,,,,,,,,,,,,,,,,,,,,,,,,,,,,,,,,,,,,,,,,,,,,,,,,,,,
1605176518.563802,32.000000,0.000000,4161.538574,4108.461426,4151.153809,4125.384766,4162.051270,4146.922852,4127.948730,4130.128418,4162.820313,4116.538574,4122.307617,4195.512695,4195.128418,4206.922852,0.000000,4.000000,,,,0.000000,4.000000,4.000000,4.000000,4.000000,4.000000,4.000000,4.000000,4.000000,4.000000,4.000000,4.000000,4.000000,4.000000,4.000000,100.000000,,,,,,,,,,,,,,,,,,,,,,,,,,,,,,,,,,,,,,,,,,,,,,,,,,,,,,,,,,,,,,,,,,,,,,
1605176518.571584,33.000000,0.000000,4147.948730,4128.461426,4168.205078,4144.358887,4172.179688,4161.410156,4144.487305,4146.922852,4167.563965,4134.358887,4128.974121,4199.358887,4197.948730,4211.025879,0.000000,4.000000,,,,0.000000,4.000000,4.000000,4.000000,4.000000,4.000000,4.000000,4.000000,4.000000,4.000000,4.000000,4.000000,4.000000,4.000000,4.000000,100.000000,,,,,,,,,,,,,,,,,,,,,,,,,,,,,,,,,,,,,,,,,,,,,,,,,,,,,,,,,,,,,,,,,,,,,,
1605176518.579465,34.000000,0.000000,4163.077148,4143.589844,4171.153809,4147.179688,4175.384766,4167.692383,4147.820313,4149.871582,4172.820313,4148.846191,4135.641113,4194.358887,4194.487305,4200.256348,0.000000,4.000000,,,,0.000000,4.000000,4.000000,4.000000,4.000000,4.000000,4.000000,4.000000,4.000000,4.000000,4.000000,4.000000,4.000000,4.000000,4.000000,100.000000,,,,,,,,,,,,,,,,,,,,,,,,,,,,,,,,,,,,,,,,,,,,,,,,,,,,,,,,,,,,,,,,,,,,,,
1605176518.587247,35.000000,0.000000,4159.615234,4130.128418,4147.948730,4135.641113,4170.000000,4147.436035,4126.410156,4132.948730,4165.128418,4130.256348,4126.025879,4180.512695,4176.538574,4184.230957,0.000000,4.000000,,,,0.000000,4.000000,4.000000,4.000000,4.000000,4.000000,4.000000,4.000000,4.000000,4.000000,4.000000,4.000000,4.000000,4.000000,4.000000,100.000000,,,,,,,,,,,,,,,,,,,,,,,,,,,,,,,,,,,,,,,,,,,,,,,,,,,,,,,,,,,,,,,,,,,,,,
1605176518.595129,36.000000,0.000000,4142.820313,4132.948730,4140.641113,4142.692383,4167.563965,4143.461426,4123.461426,4128.333496,4159.743652,4106.410156,4114.102539,4177.051270,4162.692383,4178.589844,0.000000,4.000000,,,,0.000000,4.000000,4.000000,4.000000,4.000000,4.000000,4.000000,4.000000,4.000000,4.000000,4.000000,4.000000,4.000000,4.000000,4.000000,100.000000,,,,,,,,,,,,,,,,,,,,,,,,,,,,,,,,,,,,,,,,,,,,,,,,,,,,,,,,,,,,,,,,,,,,,,
1605176518.602910,37.000000,0.000000,4136.794922,4155.000000,4158.717773,4158.461426,4168.205078,4159.615234,4140.769043,4142.051270,4164.743652,4115.641113,4119.230957,4185.641113,4166.922852,4181.538574,0.000000,4.000000,,,,0.000000,4.000000,4.000000,4.000000,4.000000,4.000000,4.000000,4.000000,4.000000,4.000000,4.000000,4.000000,4.000000,4.000000,4.000000,100.000000,,,,,,,,,,,,,,,,,,,,,,,,,,,,,,,,,,,,,,,,,,,,,,,,,,,,,,,,,,,,,,,,,,,,,,
1605176518.610792,38.000000,0.000000,4126.538574,4142.436035,4157.179688,4146.153809,4168.974121,4152.563965,4134.615234,4141.538574,4163.589844,4116.282227,4122.051270,4182.051270,4165.897461,4173.205078,0.000000,4.000000,,,,0.000000,4.000000,4.000000,4.000000,4.000000,4.000000,4.000000,4.000000,4.000000,4.000000,4.000000,4.000000,4.000000,4.000000,4.000000,100.000000,,,,,,,,,,,,,,,,,,,,,,,,,,,,,,,,,,,,,,,,,,,,,,,,,,,,,,,,,,,,,,,,,,,,,,
1605176518.618574,39.000000,0.000000,4117.179688,4115.000000,4137.051270,4123.846191,4168.205078,4145.897461,4128.333496,4132.051270,4156.410156,4091.281982,4111.153809,4173.717773,4155.000000,4160.000000,0.000000,4.000000,,,,0.000000,4.000000,4.000000,4.000000,4.000000,4.000000,4.000000,4.000000,4.000000,4.000000,4.000000,4.000000,4.000000,4.000000,4.000000,100.000000,,,,,,,,,,,,,,,,,,,,,,,,,,,,,,,,,,,,,,,,,,,,,,,,,,,,,,,,,,,,,,,,,,,,,,
1605176518.626455,40.000000,0.000000,4121.538574,4121.922852,4140.641113,4131.025879,4163.846191,4167.436035,4150.256348,4142.051270,4158.974121,4091.538574,4109.743652,4178.974121,4156.410156,4165.000000,0.000000,4.000000,,,,0.000000,4.000000,4.000000,4.000000,4.000000,4.000000,4.000000,4.000000,4.000000,4.000000,4.000000,4.000000,4.000000,4.000000,4.000000,100.000000,2.331732,0.989052,1.500728,0.740377,0.623886,4.020638,1.244922,1.309668,1.049881,0.619513,1.453376,0.650857,1.281698,1.135984,0.667855,2.200809,0.960977,1.919304,2.274140,1.081443,0.862195,0.133021,0.120995,0.197327,0.105069,0.958385,0.391234,1.017415,0.671177,0.504476,3.244652,1.097847,1.972577,1.479504,0.645623,2.109872,1.020473,0.956262,0.940646,0.548308,1.038602,0.086411,0.213531,0.269328,0.108627,11.078619,1.347697,2.138340,1.997644,1.038691,3.779280,0.207493,0.512581,0.485494,0.246217,1.464459,0.314580,0.497865,0.292078,0.249112,1.003435,0.406010,0.551940,0.627468,0.346902,1.143299,0.171479,0.619838,0.422885,0.298969
1605176518.634237,41.000000,0.000000,4125.641113,4146.410156,4163.974121,4161.025879,4163.974121,4175.384766,4165.000000,4160.897461,4168.077148,4125.897461,4125.128418,4191.153809,4170.512695,4179.102539,0.000000,4.000000,,,,0.000000,4.000000,4.000000,4.000000,4.000000,4.000000,4.000000,4.000000,4.000000,4.000000,4.000000,4.000000,4.000000,4.000000,4.000000,100.000000,,,,,,,,,,,,,,,,,,,,,,,,,,,,,,,,,,,,,,,,,,,,,,,,,,,,,,,,,,,,,,,,,,,,,,
1605176518.642118,42.000000,0.000000,4120.897461,4153.333496,4170.769043,4170.641113,4172.051270,4165.384766,4159.615234,4165.384766,4171.410156,4147.436035,4133.717773,4191.666504,4178.077148,4180.000000,0.000000,4.000000,,,,0.000000,4.000000,4.000000,4.000000,4.000000,4.000000,4.000000,4.000000,4.000000,4.000000,4.000000,4.000000,4.000000,4.000000,4.000000,100.000000,,,,,,,,,,,,,,,,,,,,,,,,,,,,,,,,,,,,,,,,,,,,,,,,,,,,,,,,,,,,,,,,,,,,,,
1605176518.649900,43.000000,0.000000,4112.692383,4138.077148,4157.436035,4147.948730,4172.563965,4165.641113,4154.230957,4152.692383,4168.974121,4131.410156,4123.205078,4184.743652,4165.897461,4168.333496,0.000000,4.000000,,,,0.000000,4.000000,4.000000,4.000000,4.000000,4.000000,4.000000,4.000000,4.000000,4.000000,4.000000,4.000000,4.000000,4.000000,4.000000,100.000000,,,,,,,,,,,,,,,,,,,,,,,,,,,,,,,,,,,,,,,,,,,,,,,,,,,,,,,,,,,,,,,,,,,,,,
1605176518.657781,44.000000,0.000000,4112.563965,4135.256348,4158.077148,4148.077148,4169.871582,4166.794922,4162.179688,4148.205078,4167.307617,4118.461426,4121.410156,4183.589844,4158.077148,4166.153809,0.000000,4.000000,,,,0.000000,4.000000,4.000000,4.000000,4.000000,4.000000,4.000000,4.000000,4.000000,4.000000,4.000000,4.000000,4.000000,4.000000,4.000000,100.000000,,,,,,,,,,,,,,,,,,,,,,,,,,,,,,,,,,,,,,,,,,,,,,,,,,,,,,,,,,,,,,,,,,,,,,
1605176518.665563,45.000000,0.000000,4114.487305,4144.102539,4166.153809,4165.384766,4176.538574,4157.436035,4163.205078,4155.641113,4167.948730,4127.820313,4128.461426,4183.717773,4165.512695,4172.051270,0.000000,4.000000,,,,0.000000,4.000000,4.000000,4.000000,4.000000,4.000000,4.000000,4.000000,4.000000,4.000000,4.000000,4.000000,4.000000,4.000000,4.000000,100.000000,,,,,,,,,,,,,,,,,,,,,,,,,,,,,,,,,,,,,,,,,,,,,,,,,,,,,,,,,,,,,,,,,,,,,,
1605176518.673544,46.000000,0.000000,4118.589844,4147.948730,4165.641113,4167.051270,4180.641113,4162.692383,4163.333496,4162.179688,4172.051270,4142.820313,4129.615234,4187.179688,4173.974121,4178.077148,0.000000,4.000000,,,,0.000000,4.000000,4.000000,4.000000,4.000000,4.000000,4.000000,4.000000,4.000000,4.000000,4.000000,4.000000,4.000000,4.000000,4.000000,100.000000,,,,,,,,,,,,,,,,,,,,,,,,,,,,,,,,,,,,,,,,,,,,,,,,,,,,,,,,,,,,,,,,,,,,,,
1605176518.681426,47.000000,0.000000,4118.717773,4143.333496,4165.512695,4162.436035,4175.000000,4181.538574,4175.000000,4164.230957,4173.077148,4146.922852,4132.179688,4192.307617,4168.717773,4174.615234,0.000000,4.000000,,,,0.000000,4.000000,4.000000,4.000000,4.000000,4.000000,4.000000,4.000000,4.000000,4.000000,4.000000,4.000000,4.000000,4.000000,4.000000,100.000000,,,,,,,,,,,,,,,,,,,,,,,,,,,,,,,,,,,,,,,,,,,,,,,,,,,,,,,,,,,,,,,,,,,,,,
1605176518.689308,48.000000,0.000000,4112.948730,4133.846191,4160.128418,4157.307617,4175.769043,4180.512695,4167.436035,4157.307617,4170.641113,4133.333496,4130.000000,4187.179688,4154.871582,4163.461426,0.000000,4.000000,,,,0.000000,4.000000,4.000000,4.000000,4.000000,4.000000,4.000000,4.000000,4.000000,4.000000,4.000000,4.000000,4.000000,4.000000,4.000000,100.000000,,,,,,,,,,,,,,,,,,,,,,,,,,,,,,,,,,,,,,,,,,,,,,,,,,,,,,,,,,,,,,,,,,,,,,
1605176518.697190,49.000000,0.000000,4113.589844,4138.205078,4154.871582,4154.102539,4181.666504,4175.769043,4163.205078,4156.922852,4170.512695,4126.025879,4123.974121,4183.205078,4156.153809,4164.102539,0.000000,4.000000,,,,0.000000,4.000000,4.000000,4.000000,4.000000,4.000000,4.000000,4.000000,4.000000,4.000000,4.000000,4.000000,4.000000,4.000000,4.000000,100.000000,,,,,,,,,,,,,,,,,,,,,,,,,,,,,,,,,,,,,,,,,,,,,,,,,,,,,,,,,,,,,,,,,,,,,,
1605176518.704972,50.000000,0.000000,4116.666504,4150.897461,4162.307617,4160.256348,4181.025879,4191.153809,4192.692383,4172.179688,4173.461426,4145.128418,4131.666504,4191.538574,4168.846191,4176.794922,0.000000,4.000000,,,,0.000000,4.000000,4.000000,4.000000,4.000000,4.000000,4.000000,4.000000,4.000000,4.000000,4.000000,4.000000,4.000000,4.000000,4.000000,100.000000,,,,,,,,,,,,,,,,,,,,,,,,,,,,,,,,,,,,,,,,,,,,,,,,,,,,,,,,,,,,,,,,,,,,,,
1605176518.712954,51.000000,0.000000,4111.025879,4145.641113,4164.230957,4163.205078,4182.436035,4200.128418,4200.128418,4178.974121,4177.563965,4161.666504,4141.794922,4192.051270,4167.563965,4179.871582,0.000000,4.000000,,,,0.000000,4.000000,4.000000,4.000000,4.000000,4.000000,4.000000,4.000000,4.000000,4.000000,4.000000,4.000000,4.000000,4.000000,4.000000,100.000000,,,,,,,,,,,,,,,,,,,,,,,,,,,,,,,,,,,,,,,,,,,,,,,,,,,,,,,,,,,,,,,,,,,,,,
1605176518.720836,52.000000,0.000000,4101.538574,4127.692383,4149.487305,4146.794922,4183.205078,4198.846191,4176.538574,4165.641113,4177.692383,4148.589844,4134.102539,4182.307617,4154.615234,4170.769043,0.000000,4.000000,,,,0.000000,4.000000,4.000000,4.000000,4.000000,4.000000,4.000000,4.000000,4.000000,4.000000,4.000000,4.000000,4.000000,4.000000,4.000000,100.000000,,,,,,,,,,,,,,,,,,,,,,,,,,,,,,,,,,,,,,,,,,,,,,,,,,,,,,,,,,,,,,,,,,,,,,
1605176518.728818,53.000000,0.000000,4108.333496,4133.205078,4153.974121,4152.563965,4178.205078,4208.205078,4190.000000,4170.384766,4177.307617,4149.358887,4132.820313,4185.769043,4159.358887,4173.717773,0.000000,4.000000,,,,0.000000,4.000000,4.000000,4.000000,4.000000,4.000000,4.000000,4.000000,4.000000,4.000000,4.000000,4.000000,4.000000,4.000000,4.000000,100.000000,,,,,,,,,,,,,,,,,,,,,,,,,,,,,,,,,,,,,,,,,,,,,,,,,,,,,,,,,,,,,,,,,,,,,,
1605176518.736700,54.000000,0.000000,4121.538574,4149.102539,4176.282227,4177.051270,4180.897461,4209.358887,4206.025879,4182.820313,4181.410156,4175.000000,4147.051270,4195.128418,4171.282227,4181.410156,0.000000,4.000000,,,,0.000000,4.000000,4.000000,4.000000,4.000000,4.000000,4.000000,4.000000,4.000000,4.000000,4.000000,4.000000,4.000000,4.000000,4.000000,100.000000,,,,,,,,,,,,,,,,,,,,,,,,,,,,,,,,,,,,,,,,,,,,,,,,,,,,,,,,,,,,,,,,,,,,,,
1605176518.744682,55.000000,0.000000,4123.717773,4154.871582,4177.820313,4180.641113,4185.384766,4196.153809,4186.538574,4173.974121,4186.538574,4188.717773,4151.025879,4195.897461,4171.794922,4182.436035,0.000000,4.000000,,,,0.000000,4.000000,4.000000,4.000000,4.000000,4.000000,4.000000,4.000000,4.000000,4.000000,4.000000,4.000000,4.000000,4.000000,4.000000,100.000000,,,,,,,,,,,,,,,,,,,,,,,,,,,,,,,,,,,,,,,,,,,,,,,,,,,,,,,,,,,,,,,,,,,,,,
1605176518.752564,56.000000,0.000000,4119.102539,4151.922852,4166.282227,4165.384766,4184.102539,4187.307617,4178.333496,4166.794922,4186.538574,4184.102539,4147.563965,4191.794922,4170.256348,4183.846191,0.000000,4.000000,,,,0.000000,4.000000,4.000000,4.000000,4.000000,4.000000,4.000000,4.000000,4.000000,4.000000,4.000000,4.000000,4.000000,4.000000,4.000000,100.000000,2.635464,1.043525,1.548466,0.811712,0.679993,4.098012,1.427640,1.351701,1.114099,0.632003,1.285705,0.691967,1.186324,1.248780,0.677241,2.097673,1.032664,1.678214,2.426364,1.091901,0.807430,0.137166,0.085154,0.179346,0.103405,0.666789,0.376239,1.028792,0.667487,0.607377,2.257333,1.108577,2.016611,1.578389,0.726431,1.461793,0.895718,0.968587,0.997792,0.577297,0.884205,0.096941,0.237300,0.287275,0.114693,8.950725,1.420738,2.047459,2.096667,1.064244,3.228392,0.222828,0.494332,0.504559,0.264386,1.401049,0.296433,0.466998,0.320072,0.237677,0.970165,0.373511,0.517590,0.685122,0.358474,1.156024,0.222104,0.489686,0.462151,0.330263
1605176518.760546,57.000000,0.000000,4124.743652,4151.025879,4168.461426,4165.641113,4185.641113,4183.846191,4187.436035,4174.487305,4183.717773,4180.384766,4150.769043,4192.563965,4173.333496,4183.205078,0.000000,4.000000,,,,0.000000,4.000000,4.000000,4.000000,4.000000,4.000000,4.000000,4.000000,4.000000,4.000000,4.000000,4.000000,4.000000,4.000000,4.000000,100.000000,,,,,,,,,,,,,,,,,,,,,,,,,,,,,,,,,,,,,,,,,,,,,,,,,,,,,,,,,,,,,,,,,,,,,,
1605176518.768428,58.000000,0.000000,4140.512695,4162.436035,4177.563965,4185.769043,4187.436035,4181.922852,4186.025879,4178.461426,4186.538574,4191.794922,4155.512695,4196.282227,4177.820313,4184.102539,0.000000,4.000000,,,,0.000000,4.000000,4.000000,4.000000,4.000000,4.000000,4.000000,4.000000,4.000000,4.000000,4.000000,4.000000,4.000000,4.000000,4.000000,100.000000,,,,,,,,,,,,,,,,,,,,,,,,,,,,,,,,,,,,,,,,,,,,,,,,,,,,,,,,,,,,,,,,,,,,,,
1605176518.776410,59.000000,0.000000,4126.282227,4156.410156,4163.333496,4172.948730,4186.410156,4183.077148,4176.794922,4166.666504,4187.307617,4192.820313,4148.461426,4189.871582,4169.615234,4181.666504,0.000000,4.000000,,,,0.000000,4.000000,4.000000,4.000000,4.000000,4.000000,4.000000,4.000000,4.000000,4.000000,4.000000,4.000000,4.000000,4.000000,4.000000,100.000000,,,,,,,,,,,,,,,,,,,,,,,,,,,,,,,,,,,,,,,,,,,,,,,,,,,,,,,,,,,,,,,,,,,,,,
1605176518.784293,60.000000,0.000000,4098.077148,4129.871582,4141.410156,4143.461426,4183.205078,4168.717773,4165.128418,4149.230957,4179.743652,4161.025879,4135.000000,4181.538574,4150.769043,4168.205078,0.000000,4.000000,,,,0.000000,4.000000,4.000000,4.000000,4.000000,4.000000,4.000000,4.000000,4.000000,4.000000,4.000000,4.000000,4.000000,4.000000,4.000000,100.000000,,,,,,,,,,,,,,,,,,,,,,,,,,,,,,,,,,,,,,,,,,,,,,,,,,,,,,,,,,,,,,,,,,,,,,
1605176518.792274,61.000000,0.000000,4111.025879,4135.000000,4151.153809,4161.794922,4177.692383,4152.436035,4165.512695,4145.512695,4178.205078,4150.384766,4135.384766,4182.692383,4150.000000,4165.641113,0.000000,4.000000,,,,0.000000,4.000000,4.000000,4.000000,4.000000,4.000000,4.000000,4.000000,4.000000,4.000000,4.000000,4.000000,4.000000,4.000000,4.000000,100.000000,,,,,,,,,,,,,,,,,,,,,,,,,,,,,,,,,,,,,,,,,,,,,,,,,,,,,,,,,,,,,,,,,,,,,,
1605176518.800156,62.000000,0.000000,4131.153809,4149.102539,4161.666504,4176.538574,4176.794922,4161.538574,4167.692383,4148.589844,4180.897461,4163.077148,4139.102539,4184.230957,4156.538574,4175.384766,0.000000,4.000000,,,,0.000000,4.000000,4.000000,4.000000,4.000000,4.000000,4.000000,4.000000,4.000000,4.000000,4.000000,4.000000,4.000000,4.000000,4.000000,100.000000,,,,,,,,,,,,,,,,,,,,,,,,,,,,,,,,,,,,,,,,,,,,,,,,,,,,,,,,,,,,,,,,,,,,,,
1605176518.808138,63.000000,0.000000,4124.487305,4146.538574,4155.897461,4157.820313,4178.461426,4182.948730,4169.615234,4158.077148,4180.256348,4166.538574,4136.282227,4184.230957,4162.948730,4181.538574,0.000000,4.000000,,,,0.000000,4.000000,4.000000,4.000000,4.000000,4.000000,4.000000,4.000000,4.000000,4.000000,4.000000,4.000000,4.000000,4.000000,4.000000,100.000000,,,,,,,,,,,,,,,,,,,,,,,,,,,,,,,,,,,,,,,,,,,,,,,,,,,,,,,,,,,,,,,,,,,,,,
1605176518.816020,64.000000,0.000000,4110.256348,4141.794922,4152.692383,4156.025879,4175.384766,4155.384766,4165.641113,4159.358887,4178.846191,4158.717773,4133.333496,4181.410156,4161.282227,4174.102539,3859.000000,4.000000,,,,0.000000,4.000000,4.000000,4.000000,4.000000,4.000000,4.000000,4.000000,4.000000,4.000000,4.000000,4.000000,4.000000,4.000000,4.000000,100.000000,,,,,,,,,,,,,,,,,,,,,,,,,,,,,,,,,,,,,,,,,,,,,,,,,,,,,,,,,,,,,,,,,,,,,,
1605176518.824002,65.000000,0.000000,4115.384766,4146.410156,4161.666504,4180.384766,4172.820313,4121.794922,4160.512695,4159.230957,4182.948730,4158.846191,4137.307617,4183.589844,4159.615234,4176.153809,3939.000000,4.000000,,,,0.000000,4.000000,4.000000,4.000000,4.000000,4.000000,4.000000,4.000000,4.000000,4.000000,4.000000,4.000000,4.000000,4.000000,4.000000,100.000000,,,,,,,,,,,,,,,,,,,,,,,,,,,,,,,,,,,,,,,,,,,,,,,,,,,,,,,,,,,,,,,,,,,,,,
1605176518.831883,66.000000,0.000000,4124.615234,4146.282227,4164.487305,4171.538574,4177.307617,4161.410156,4172.179688,4168.589844,4185.384766,4169.487305,4140.512695,4190.769043,4165.897461,4188.846191,3786.000000,4.000000,,,,0.000000,4.000000,4.000000,4.000000,4.000000,4.000000,4.000000,4.000000,4.000000,4.000000,4.000000,4.000000,4.000000,4.000000,4.000000,100.000000,,,,,,,,,,,,,,,,,,,,,,,,,,,,,,,,,,,,,,,,,,,,,,,,,,,,,,,,,,,,,,,,,,,,,,
1605176518.839665,67.000000,0.000000,4118.333496,4137.948730,4154.615234,4144.230957,4179.358887,4196.538574,4179.230957,4169.230957,4180.384766,4169.743652,4137.692383,4190.512695,4167.436035,4187.307617,4226.000000,4.000000,,,,0.000000,4.000000,4.000000,4.000000,4.000000,4.000000,4.000000,4.000000,4.000000,4.000000,4.000000,4.000000,4.000000,4.000000,4.000000,100.000000,,,,,,,,,,,,,,,,,,,,,,,,,,,,,,,,,,,,,,,,,,,,,,,,,,,,,,,,,,,,,,,,,,,,,,
1605176518.847547,68.000000,0.000000,4121.538574,4151.538574,4164.871582,4171.153809,4170.512695,4162.820313,4171.410156,4168.589844,4181.410156,4174.871582,4142.179688,4191.666504,4174.102539,4188.205078,3527.000000,4.000000,,,,0.000000,4.000000,4.000000,4.000000,4.000000,4.000000,4.000000,4.000000,4.000000,4.000000,4.000000,4.000000,4.000000,4.000000,4.000000,100.000000,,,,,,,,,,,,,,,,,,,,,,,,,,,,,,,,,,,,,,,,,,,,,,,,,,,,,,,,,,,,,,,,,,,,,,
1605176518.855329,69.000000,0.000000,4139.487305,4176.025879,4188.333496,4208.846191,4166.153809,4152.820313,4182.436035,4182.307617,4189.871582,4204.358887,4156.025879,4205.256348,4189.743652,4202.436035,3361.000000,4.000000,,,,0.000000,4.000000,4.000000,4.000000,4.000000,4.000000,4.000000,4.000000,4.000000,4.000000,4.000000,4.000000,4.000000,4.000000,4.000000,100.000000,,,,,,,,,,,,,,,,,,,,,,,,,,,,,,,,,,,,,,,,,,,,,,,,,,,,,,,,,,,,,,,,,,,,,,
1605176518.863211,70.000000,0.000000,4132.820313,4160.897461,4176.153809,4171.410156,4177.179688,4192.692383,4197.179688,4180.769043,4190.384766,4215.769043,4153.717773,4201.922852,4184.743652,4198.461426,3837.000000,4.000000,,,,0.000000,4.000000,4.000000,4.000000,4.000000,4.000000,4.000000,4.000000,4.000000,4.000000,4.000000,4.000000,4.000000,4.000000,4.000000,100.000000,,,,,,,,,,,,,,,,,,,,,,,,,,,,,,,,,,,,,,,,,,,,,,,,,,,,,,,,,,,,,,,,,,,,,,
1605176518.870992,71.000000,0.000000,4106.282227,4124.358887,4143.717773,4125.000000,4183.717773,4183.333496,4179.230957,4155.897461,4182.820313,4176.282227,4135.641113,4183.974121,4158.974121,4176.410156,3673.000000,4.000000,,,,0.000000,4.000000,4.000000,4.000000,4.000000,4.000000,4.000000,4.000000,4.000000,4.000000,4.000000,4.000000,4.000000,4.000000,4.000000,100.000000,,,,,,,,,,,,,,,,,,,,,,,,,,,,,,,,,,,,,,,,,,,,,,,,,,,,,,,,,,,,,,,,,,,,,,
