title:club, start timestamp:1605183839.282180, stop timestamp:1605183900.063439, headset type:EPOCPLUS, headset serial:3B9AEC95, headset firmware:625, channels:108, sampling rate:eeg_128;pow_8, samples:7486      , version:2.0
Timestamp,EEG.Counter,EEG.Interpolated,EEG.AF3,EEG.F7,EEG.F3,EEG.FC5,EEG.T7,EEG.P7,EEG.O1,EEG.O2,EEG.P8,EEG.T8,EEG.FC6,EEG.F4,EEG.F8,EEG.AF4,EEG.RawCq,EEG.Battery,MarkerIndex,MarkerType,MarkerValueInt,EEG.MarkerHardware,CQ.AF3,CQ.F7,CQ.F3,CQ.FC5,CQ.T7,CQ.P7,CQ.O1,CQ.O2,CQ.P8,CQ.T8,CQ.FC6,CQ.F4,CQ.F8,CQ.AF4,CQ.Overall,POW.AF3.Theta,POW.AF3.Alpha,POW.AF3.BetaL,POW.AF3.BetaH,POW.AF3.Gamma,POW.F7.Theta,POW.F7.Alpha,POW.F7.BetaL,POW.F7.BetaH,POW.F7.Gamma,POW.F3.Theta,POW.F3.Alpha,POW.F3.BetaL,POW.F3.BetaH,POW.F3.Gamma,POW.FC5.Theta,POW.FC5.Alpha,POW.FC5.BetaL,POW.FC5.BetaH,POW.FC5.Gamma,POW.T7.Theta,POW.T7.Alpha,POW.T7.BetaL,POW.T7.BetaH,POW.T7.Gamma,POW.P7.Theta,POW.P7.Alpha,POW.P7.BetaL,POW.P7.BetaH,POW.P7.Gamma,POW.O1.Theta,POW.O1.Alpha,POW.O1.BetaL,POW.O1.BetaH,POW.O1.Gamma,POW.O2.Theta,POW.O2.Alpha,POW.O2.BetaL,POW.O2.BetaH,POW.O2.Gamma,POW.P8.Theta,POW.P8.Alpha,POW.P8.BetaL,POW.P8.BetaH,POW.P8.Gamma,POW.T8.Theta,POW.T8.Alpha,POW.T8.BetaL,POW.T8.BetaH,POW.T8.Gamma,POW.FC6.Theta,POW.FC6.Alpha,POW.FC6.BetaL,POW.FC6.BetaH,POW.FC6.Gamma,POW.F4.Theta,POW.F4.Alpha,POW.F4.BetaL,POW.F4.BetaH,POW.F4.Gamma,POW.F8.Theta,POW.F8.Alpha,POW.F8.BetaL,POW.F8.BetaH,POW.F8.Gamma,POW.AF4.Theta,POW.AF4.Alpha,POW.AF4.BetaL,POW.AF4.BetaH,POW.AF4.Gamma
1605183839.282180,9.000000,0.000000,3761.923096,3820.641113,3932.820557,3841.281982,3796.666748,3845.641113,3841.153809,3947.564209,4066.025635,3841.153809,3391.025635,3943.205078,3876.410156,3960.897461,3297.000000,3.000000,,,,0.000000,4.000000,4.000000,4.000000,4.000000,4.000000,4.000000,4.000000,4.000000,4.000000,4.000000,4.000000,4.000000,4.000000,4.000000,100.000000,27.716557,2.648092,0.473148,0.643368,0.348600,16.211420,1.910000,0.288985,0.636374,0.401109,3.902085,0.664155,0.416640,0.613637,0.334943,13.597594,1.878018,0.902589,1.510503,1.063011,9.607193,2.384018,0.806274,0.613957,0.732962,8.833023,1.679460,0.563429,0.423358,0.354716,8.890790,1.497746,0.852330,0.420436,0.210823,2.693774,0.390071,0.432231,0.243043,0.101730,0.497625,0.205910,0.290042,0.079128,0.068349,13.383533,2.443300,3.770176,9.088601,4.333215,102.172943,9.293595,5.089976,3.693074,1.687355,0.787988,0.190714,0.123275,0.107844,0.076708,15.192889,1.324989,1.310020,0.947231,0.550260,3.091484,0.837134,0.247446,0.315714,0.190285
1605183839.289960,10.000000,0.000000,3765.384521,3830.000000,3932.692383,3858.589844,3805.769287,3847.820557,3847.948730,3951.410156,4067.820557,3831.025635,3411.410156,3947.820557,3878.589844,3960.897461,3101.000000,3.000000,,,,0.000000,4.000000,4.000000,4.000000,4.000000,4.000000,4.000000,4.000000,4.000000,4.000000,4.000000,4.000000,4.000000,4.000000,4.000000,100.000000,,,,,,,,,,,,,,,,,,,,,,,,,,,,,,,,,,,,,,,,,,,,,,,,,,,,,,,,,,,,,,,,,,,,,,
1605183839.297741,11.000000,0.000000,3786.025635,3843.076904,3941.538574,3883.974365,3808.974365,3853.718018,3854.871826,3955.256348,4072.051270,3850.769287,3453.461426,3949.615479,3887.435791,3968.846191,2290.000000,3.000000,,,,0.000000,4.000000,4.000000,4.000000,4.000000,4.000000,4.000000,4.000000,4.000000,4.000000,4.000000,4.000000,4.000000,4.000000,4.000000,100.000000,,,,,,,,,,,,,,,,,,,,,,,,,,,,,,,,,,,,,,,,,,,,,,,,,,,,,,,,,,,,,,,,,,,,,,
1605183839.305622,12.000000,0.000000,3809.230713,3856.538574,3952.435791,3889.102539,3823.589844,3869.230713,3866.025635,3958.333252,4076.025635,3881.025635,3489.358887,3946.794922,3898.974365,3972.179443,5472.000000,3.000000,,,,0.000000,4.000000,4.000000,4.000000,4.000000,4.000000,4.000000,4.000000,4.000000,4.000000,4.000000,4.000000,4.000000,4.000000,4.000000,100.000000,,,,,,,,,,,,,,,,,,,,,,,,,,,,,,,,,,,,,,,,,,,,,,,,,,,,,,,,,,,,,,,,,,,,,,
1605183839.313403,13.000000,0.000000,3799.358887,3864.871826,3948.333252,3879.871826,3838.333252,3877.051270,3873.846191,3958.974365,4072.820557,3869.358887,3506.410156,3946.923096,3907.307617,3962.564209,1669.000000,3.000000,,,,0.000000,4.000000,4.000000,4.000000,4.000000,4.000000,4.000000,4.000000,4.000000,4.000000,4.000000,4.000000,4.000000,4.000000,4.000000,100.000000,,,,,,,,,,,,,,,,,,,,,,,,,,,,,,,,,,,,,,,,,,,,,,,,,,,,,,,,,,,,,,,,,,,,,,
1605183839.321284,14.000000,0.000000,3792.435791,3871.923096,3946.794922,3884.871826,3843.589844,3880.769287,3879.230713,3959.615479,4069.871826,3832.307617,3525.641113,3949.871826,3908.205078,3961.666748,3101.000000,3.000000,,,,0.000000,4.000000,4.000000,4.000000,4.000000,4.000000,4.000000,4.000000,4.000000,4.000000,4.000000,4.000000,4.000000,4.000000,4.000000,100.000000,,,,,,,,,,,,,,,,,,,,,,,,,,,,,,,,,,,,,,,,,,,,,,,,,,,,,,,,,,,,,,,,,,,,,,
1605183839.329064,15.000000,0.000000,3808.333252,3872.179443,3952.948730,3896.666748,3845.769287,3882.948730,3883.589844,3959.615479,4071.666748,3853.333252,3550.897461,3945.256348,3906.410156,3967.435791,2290.000000,3.000000,,,,0.000000,4.000000,4.000000,4.000000,4.000000,4.000000,4.000000,4.000000,4.000000,4.000000,4.000000,4.000000,4.000000,4.000000,4.000000,100.000000,,,,,,,,,,,,,,,,,,,,,,,,,,,,,,,,,,,,,,,,,,,,,,,,,,,,,,,,,,,,,,,,,,,,,,
1605183839.336845,16.000000,0.000000,3811.666748,3865.384521,3952.820557,3889.743652,3840.384521,3880.769287,3885.256348,3960.641113,4074.102539,3913.846191,3559.743652,3942.948730,3905.769287,3963.333252,0.000000,3.000000,,,,0.000000,4.000000,4.000000,4.000000,4.000000,4.000000,4.000000,4.000000,4.000000,4.000000,4.000000,4.000000,4.000000,4.000000,4.000000,100.000000,,,,,,,,,,,,,,,,,,,,,,,,,,,,,,,,,,,,,,,,,,,,,,,,,,,,,,,,,,,,,,,,,,,,,,
1605183839.344726,17.000000,0.000000,3807.051270,3866.410156,3953.333252,3887.820557,3834.743652,3883.589844,3889.743652,3966.666748,4073.974365,3898.718018,3566.153809,3948.718018,3909.102539,3960.384521,0.000000,3.000000,,,,0.000000,4.000000,4.000000,4.000000,4.000000,4.000000,4.000000,4.000000,4.000000,4.000000,4.000000,4.000000,4.000000,4.000000,4.000000,100.000000,,,,,,,,,,,,,,,,,,,,,,,,,,,,,,,,,,,,,,,,,,,,,,,,,,,,,,,,,,,,,,,,,,,,,,
1605183839.352607,18.000000,0.000000,3819.615479,3885.641113,3964.358887,3905.897461,3853.076904,3898.846191,3899.358887,3973.718018,4077.179443,3866.410156,3597.051270,3951.410156,3921.794922,3969.102539,0.000000,3.000000,,,,0.000000,4.000000,4.000000,4.000000,4.000000,4.000000,4.000000,4.000000,4.000000,4.000000,4.000000,4.000000,4.000000,4.000000,4.000000,100.000000,,,,,,,,,,,,,,,,,,,,,,,,,,,,,,,,,,,,,,,,,,,,,,,,,,,,,,,,,,,,,,,,,,,,,,
1605183839.360388,19.000000,0.000000,3848.974365,3906.281982,3977.435791,3928.076904,3884.230713,3913.589844,3912.948730,3979.487061,4083.589844,3910.897461,3660.256348,3954.102539,3947.307617,3980.256348,0.000000,3.000000,,,,0.000000,4.000000,4.000000,4.000000,4.000000,4.000000,4.000000,4.000000,4.000000,4.000000,4.000000,4.000000,4.000000,4.000000,4.000000,100.000000,,,,,,,,,,,,,,,,,,,,,,,,,,,,,,,,,,,,,,,,,,,,,,,,,,,,,,,,,,,,,,,,,,,,,,
1605183839.368269,20.000000,0.000000,3870.897461,3912.948730,3985.769287,3937.948730,3893.076904,3920.641113,3923.846191,3987.820557,4087.948730,3957.948730,3718.718018,3960.769287,3963.718018,3984.358887,0.000000,3.000000,,,,0.000000,4.000000,4.000000,4.000000,4.000000,4.000000,4.000000,4.000000,4.000000,4.000000,4.000000,4.000000,4.000000,4.000000,4.000000,100.000000,,,,,,,,,,,,,,,,,,,,,,,,,,,,,,,,,,,,,,,,,,,,,,,,,,,,,,,,,,,,,,,,,,,,,,
1605183839.376050,21.000000,0.000000,3871.153809,3926.666748,3989.358887,3937.948730,3900.128174,3931.923096,3932.051270,3994.743652,4085.641113,3945.641113,3742.179443,3960.512939,3960.897461,3981.666748,0.000000,3.000000,,,,0.000000,4.000000,4.000000,4.000000,4.000000,4.000000,4.000000,4.000000,4.000000,4.000000,4.000000,4.000000,4.000000,4.000000,4.000000,100.000000,,,,,,,,,,,,,,,,,,,,,,,,,,,,,,,,,,,,,,,,,,,,,,,,,,,,,,,,,,,,,,,,,,,,,,
1605183839.383831,22.000000,0.000000,3865.769287,3934.102539,3986.410156,3932.435791,3907.692383,3936.666748,3934.358887,3990.641113,4077.948730,3918.718018,3747.179443,3958.205078,3958.974365,3981.153809,0.000000,3.000000,,,,0.000000,4.000000,4.000000,4.000000,4.000000,4.000000,4.000000,4.000000,4.000000,4.000000,4.000000,4.000000,4.000000,4.000000,4.000000,100.000000,,,,,,,,,,,,,,,,,,,,,,,,,,,,,,,,,,,,,,,,,,,,,,,,,,,,,,,,,,,,,,,,,,,,,,
1605183839.391712,23.000000,0.000000,3884.615479,3936.025635,3991.538574,3949.230713,3905.897461,3940.897461,3939.487061,3987.564209,4077.692383,3922.948730,3787.307617,3964.102539,3979.871826,3992.435791,0.000000,3.000000,,,,0.000000,4.000000,4.000000,4.000000,4.000000,4.000000,4.000000,4.000000,4.000000,4.000000,4.000000,4.000000,4.000000,4.000000,4.000000,100.000000,,,,,,,,,,,,,,,,,,,,,,,,,,,,,,,,,,,,,,,,,,,,,,,,,,,,,,,,,,,,,,,,,,,,,,
1605183839.399493,24.000000,0.000000,3900.384521,3947.948730,3997.692383,3975.641113,3912.820557,3951.666748,3949.230713,3991.281982,4086.153809,3961.281982,3827.692383,3966.666748,3993.205078,3997.179443,0.000000,3.000000,,,,0.000000,4.000000,4.000000,4.000000,4.000000,4.000000,4.000000,4.000000,4.000000,4.000000,4.000000,4.000000,4.000000,4.000000,4.000000,100.000000,,,,,,,,,,,,,,,,,,,,,,,,,,,,,,,,,,,,,,,,,,,,,,,,,,,,,,,,,,,,,,,,,,,,,,
1605183839.407373,25.000000,0.000000,3903.333252,3964.743652,4002.564209,3983.461426,3946.281982,3966.025635,3963.333252,3998.589844,4090.897461,4012.051270,3851.794922,3965.512939,3993.846191,3990.897461,0.000000,3.000000,,,,0.000000,4.000000,4.000000,4.000000,4.000000,4.000000,4.000000,4.000000,4.000000,4.000000,4.000000,4.000000,4.000000,4.000000,4.000000,100.000000,24.063587,2.628129,0.475745,0.727801,0.339804,15.617188,1.980776,0.342812,0.749484,0.393409,3.717552,0.757636,0.437869,0.649204,0.331967,13.230069,2.021391,0.992763,1.570748,1.088853,10.844720,3.057945,0.885577,0.712265,0.756615,9.619083,1.909420,0.665266,0.489796,0.345531,9.638913,1.620000,0.920703,0.487737,0.206322,2.874362,0.465244,0.575866,0.277803,0.100610,0.511078,0.219761,0.335741,0.080323,0.075178,15.050929,2.559652,3.982660,9.362756,4.116136,103.017334,11.099911,5.437341,4.192747,1.746101,0.787759,0.184315,0.116519,0.133644,0.071628,14.607510,1.626254,1.083125,1.033802,0.544536,2.924008,0.834009,0.250056,0.355149,0.204064
1605183839.415155,26.000000,0.000000,3914.487061,3972.179443,4008.205078,3992.307617,3963.333252,3975.256348,3970.384521,4000.512939,4086.153809,3987.820557,3882.948730,3967.948730,4001.153809,3988.076904,0.000000,3.000000,,,,0.000000,4.000000,4.000000,4.000000,4.000000,4.000000,4.000000,4.000000,4.000000,4.000000,4.000000,4.000000,4.000000,4.000000,4.000000,100.000000,,,,,,,,,,,,,,,,,,,,,,,,,,,,,,,,,,,,,,,,,,,,,,,,,,,,,,,,,,,,,,,,,,,,,,
1605183839.423035,27.000000,0.000000,3939.615479,3992.564209,4024.487061,4029.615479,3964.230713,3994.487061,3986.153809,4010.384521,4093.461426,3965.641113,3943.589844,3975.641113,4023.718018,3999.102539,0.000000,3.000000,,,,0.000000,4.000000,4.000000,4.000000,4.000000,4.000000,4.000000,4.000000,4.000000,4.000000,4.000000,4.000000,4.000000,4.000000,4.000000,100.000000,,,,,,,,,,,,,,,,,,,,,,,,,,,,,,,,,,,,,,,,,,,,,,,,,,,,,,,,,,,,,,,,,,,,,,
1605183839.430816,28.000000,0.000000,3951.410156,4002.051270,4032.179443,4037.564209,3981.538574,4005.897461,4000.641113,4020.128174,4096.666504,4017.692383,3989.230713,3977.435791,4032.179443,4000.897461,0.000000,3.000000,,,,0.000000,4.000000,4.000000,4.000000,4.000000,4.000000,4.000000,4.000000,4.000000,4.000000,4.000000,4.000000,4.000000,4.000000,4.000000,100.000000,,,,,,,,,,,,,,,,,,,,,,,,,,,,,,,,,,,,,,,,,,,,,,,,,,,,,,,,,,,,,,,,,,,,,,
1605183839.438697,29.000000,0.000000,3953.205078,3999.102539,4024.743652,4018.589844,4005.256348,4009.743652,4007.564209,4024.615479,4091.281982,4067.435791,4012.948730,3977.820557,4032.692383,3999.615479,0.000000,3.000000,,,,0.000000,4.000000,4.000000,4.000000,4.000000,4.000000,4.000000,4.000000,4.000000,4.000000,4.000000,4.000000,4.000000,4.000000,4.000000,100.000000,,,,,,,,,,,,,,,,,,,,,,,,,,,,,,,,,,,,,,,,,,,,,,,,,,,,,,,,,,,,,,,,,,,,,,
1605183839.446478,30.000000,0.000000,3963.846191,4015.000000,4025.641113,4037.820557,4007.564209,4019.743652,4015.256348,4031.281982,4093.589844,4056.923096,4051.794922,3980.384521,4049.230713,4007.051270,0.000000,3.000000,,,,0.000000,4.000000,4.000000,4.000000,4.000000,4.000000,4.000000,4.000000,4.000000,4.000000,4.000000,4.000000,4.000000,4.000000,4.000000,100.000000,,,,,,,,,,,,,,,,,,,,,,,,,,,,,,,,,,,,,,,,,,,,,,,,,,,,,,,,,,,,,,,,,,,,,,
1605183839.454359,31.000000,0.000000,3985.512939,4037.948730,4045.000000,4075.000000,4017.692383,4035.641113,4031.923096,4041.153809,4098.846191,4018.076904,4106.794922,3986.794922,4070.769287,4015.769287,0.000000,3.000000,,,,0.000000,4.000000,4.000000,4.000000,4.000000,4.000000,4.000000,4.000000,4.000000,4.000000,4.000000,4.000000,4.000000,4.000000,4.000000,100.000000,,,,,,,,,,,,,,,,,,,,,,,,,,,,,,,,,,,,,,,,,,,,,,,,,,,,,,,,,,,,,,,,,,,,,,
1605183839.462140,32.000000,0.000000,3996.794922,4046.153809,4055.512939,4075.769287,4036.538574,4042.435791,4039.871826,4041.281982,4092.948730,4029.102539,4140.256348,3990.000000,4074.358887,4016.410156,0.000000,3.000000,,,,0.000000,4.000000,4.000000,4.000000,4.000000,4.000000,4.000000,4.000000,4.000000,4.000000,4.000000,4.000000,4.000000,4.000000,4.000000,100.000000,,,,,,,,,,,,,,,,,,,,,,,,,,,,,,,,,,,,,,,,,,,,,,,,,,,,,,,,,,,,,,,,,,,,,,
1605183839.470021,33.000000,0.000000,4007.051270,4059.615479,4060.512939,4073.974365,4053.718018,4053.205078,4044.743652,4042.051270,4096.025879,4087.179443,4169.615234,3991.281982,4088.076904,4019.871826,0.000000,3.000000,,,,0.000000,4.000000,4.000000,4.000000,4.000000,4.000000,4.000000,4.000000,4.000000,4.000000,4.000000,4.000000,4.000000,4.000000,4.000000,100.000000,,,,,,,,,,,,,,,,,,,,,,,,,,,,,,,,,,,,,,,,,,,,,,,,,,,,,,,,,,,,,,,,,,,,,,
1605183839.477802,34.000000,0.000000,4021.153809,4073.461426,4064.615479,4095.641113,4070.897461,4067.435791,4056.794922,4048.974365,4102.948730,4115.512695,4223.333496,3994.358887,4112.563965,4025.000000,0.000000,3.000000,,,,0.000000,4.000000,4.000000,4.000000,4.000000,4.000000,4.000000,4.000000,4.000000,4.000000,4.000000,4.000000,4.000000,4.000000,4.000000,100.000000,,,,,,,,,,,,,,,,,,,,,,,,,,,,,,,,,,,,,,,,,,,,,,,,,,,,,,,,,,,,,,,,,,,,,,
1605183839.485682,35.000000,0.000000,4028.589844,4072.435791,4065.384521,4110.000000,4074.102539,4072.820557,4067.307617,4052.564209,4100.897461,4104.871582,4255.897461,3996.281982,4113.846191,4026.410156,0.000000,3.000000,,,,0.000000,4.000000,4.000000,4.000000,4.000000,4.000000,4.000000,4.000000,4.000000,4.000000,4.000000,4.000000,4.000000,4.000000,4.000000,100.000000,,,,,,,,,,,,,,,,,,,,,,,,,,,,,,,,,,,,,,,,,,,,,,,,,,,,,,,,,,,,,,,,,,,,,,
1605183839.493463,36.000000,0.000000,4030.128174,4070.512939,4073.589844,4101.538574,4069.615479,4077.692383,4072.435791,4052.564209,4102.307617,4102.051270,4260.000000,3992.692383,4106.666504,4023.846191,0.000000,3.000000,,,,0.000000,4.000000,4.000000,4.000000,4.000000,4.000000,4.000000,4.000000,4.000000,4.000000,4.000000,4.000000,4.000000,4.000000,4.000000,100.000000,,,,,,,,,,,,,,,,,,,,,,,,,,,,,,,,,,,,,,,,,,,,,,,,,,,,,,,,,,,,,,,,,,,,,,
1605183839.501344,37.000000,0.000000,4037.820557,4083.205078,4083.718018,4105.384766,4081.410156,4085.897461,4076.538574,4055.769287,4104.743652,4086.794922,4269.487305,3991.153809,4113.846191,4022.179443,0.000000,3.000000,,,,0.000000,4.000000,4.000000,4.000000,4.000000,4.000000,4.000000,4.000000,4.000000,4.000000,4.000000,4.000000,4.000000,4.000000,4.000000,100.000000,,,,,,,,,,,,,,,,,,,,,,,,,,,,,,,,,,,,,,,,,,,,,,,,,,,,,,,,,,,,,,,,,,,,,,
1605183839.509125,38.000000,0.000000,4050.897461,4101.153809,4081.794922,4132.948730,4104.743652,4095.128174,4084.487061,4060.769287,4103.589844,4087.820557,4293.717773,3996.538574,4121.025879,4025.384521,0.000000,3.000000,,,,0.000000,4.000000,4.000000,4.000000,4.000000,4.000000,4.000000,4.000000,4.000000,4.000000,4.000000,4.000000,4.000000,4.000000,4.000000,100.000000,,,,,,,,,,,,,,,,,,,,,,,,,,,,,,,,,,,,,,,,,,,,,,,,,,,,,,,,,,,,,,,,,,,,,,
1605183839.517005,39.000000,0.000000,4061.794922,4110.897461,4084.615479,4142.692383,4112.563965,4104.230957,4098.077148,4067.435791,4109.102539,4135.769043,4328.205078,4002.307617,4125.256348,4033.205078,0.000000,3.000000,,,,0.000000,4.000000,4.000000,4.000000,4.000000,4.000000,4.000000,4.000000,4.000000,4.000000,4.000000,4.000000,4.000000,4.000000,4.000000,100.000000,,,,,,,,,,,,,,,,,,,,,,,,,,,,,,,,,,,,,,,,,,,,,,,,,,,,,,,,,,,,,,,,,,,,,,
1605183839.524786,40.000000,0.000000,4080.641113,4117.051270,4101.282227,4136.666504,4114.743652,4117.179688,4114.230957,4078.974365,4113.717773,4178.205078,4381.666504,4004.871826,4141.153809,4044.358887,0.000000,3.000000,,,,0.000000,4.000000,4.000000,4.000000,4.000000,4.000000,4.000000,4.000000,4.000000,4.000000,4.000000,4.000000,4.000000,4.000000,4.000000,100.000000,,,,,,,,,,,,,,,,,,,,,,,,,,,,,,,,,,,,,,,,,,,,,,,,,,,,,,,,,,,,,,,,,,,,,,
1605183839.532667,41.000000,0.000000,4096.025879,4123.461426,4107.307617,4146.922852,4125.128418,4127.051270,4121.666504,4084.358887,4109.615234,4175.000000,4412.692383,4004.743652,4152.692383,4048.589844,0.000000,3.000000,,,,0.000000,4.000000,4.000000,4.000000,4.000000,4.000000,4.000000,4.000000,4.000000,4.000000,4.000000,4.000000,4.000000,4.000000,4.000000,100.000000,18.631798,2.894920,0.459289,0.772621,0.331278,13.637365,2.212031,0.399661,0.822625,0.383736,3.225604,1.058609,0.432132,0.652716,0.334464,11.570864,2.291982,1.072692,1.709274,1.145127,11.164185,3.906802,0.964389,0.807301,0.799235,9.398519,2.147195,0.743889,0.521794,0.333066,9.381659,1.696033,0.939850,0.520925,0.207724,2.770315,0.579505,0.698652,0.298088,0.101122,0.475124,0.231420,0.363515,0.086719,0.082865,15.546939,2.987986,4.045933,9.342221,4.042139,95.702553,14.580136,5.569380,4.465895,1.783035,0.740749,0.197450,0.104804,0.152685,0.067234,13.035014,2.153700,0.824910,1.071620,0.529190,2.574939,0.922291,0.243100,0.372937,0.211482
1605183839.540448,42.000000,0.000000,4106.794922,4138.846191,4106.538574,4167.692383,4146.794922,4137.051270,4124.230957,4082.564209,4108.846191,4145.512695,4431.153809,4007.307617,4160.512695,4048.718018,0.000000,3.000000,,,,0.000000,4.000000,4.000000,4.000000,4.000000,4.000000,4.000000,4.000000,4.000000,4.000000,4.000000,4.000000,4.000000,4.000000,4.000000,100.000000,,,,,,,,,,,,,,,,,,,,,,,,,,,,,,,,,,,,,,,,,,,,,,,,,,,,,,,,,,,,,,,,,,,,,,
1605183839.548328,43.000000,0.000000,4116.666504,4149.358887,4112.179688,4175.128418,4152.948730,4140.000000,4129.743652,4085.256348,4115.256348,4137.436035,4456.025879,4012.307617,4169.102539,4053.076904,0.000000,3.000000,,,,0.000000,4.000000,4.000000,4.000000,4.000000,4.000000,4.000000,4.000000,4.000000,4.000000,4.000000,4.000000,4.000000,4.000000,4.000000,100.000000,,,,,,,,,,,,,,,,,,,,,,,,,,,,,,,,,,,,,,,,,,,,,,,,,,,,,,,,,,,,,,,,,,,,,,
1605183839.556109,44.000000,0.000000,4133.846191,4160.256348,4126.410156,4193.589844,4155.384766,4148.589844,4147.307617,4097.948730,4119.743652,4179.743652,4501.922852,4016.923096,4187.692383,4063.589844,0.000000,3.000000,,,,0.000000,4.000000,4.000000,4.000000,4.000000,4.000000,4.000000,4.000000,4.000000,4.000000,4.000000,4.000000,4.000000,4.000000,4.000000,100.000000,,,,,,,,,,,,,,,,,,,,,,,,,,,,,,,,,,,,,,,,,,,,,,,,,,,,,,,,,,,,,,,,,,,,,,
1605183839.563990,45.000000,0.000000,4139.615234,4164.102539,4130.769043,4201.410156,4162.051270,4162.179688,4156.922852,4101.025879,4115.641113,4200.512695,4531.666504,4015.128174,4194.615234,4061.794922,0.000000,3.000000,,,,0.000000,4.000000,4.000000,4.000000,4.000000,4.000000,4.000000,4.000000,4.000000,4.000000,4.000000,4.000000,4.000000,4.000000,4.000000,100.000000,,,,,,,,,,,,,,,,,,,,,,,,,,,,,,,,,,,,,,,,,,,,,,,,,,,,,,,,,,,,,,,,,,,,,,
1605183839.571770,46.000000,0.000000,4146.025879,4173.717773,4132.820313,4199.230957,4177.563965,4176.282227,4165.769043,4101.794922,4116.794922,4182.692383,4555.128418,4016.281982,4198.077148,4061.538574,0.000000,3.000000,,,,0.000000,4.000000,4.000000,4.000000,4.000000,4.000000,4.000000,4.000000,4.000000,4.000000,4.000000,4.000000,4.000000,4.000000,4.000000,100.000000,,,,,,,,,,,,,,,,,,,,,,,,,,,,,,,,,,,,,,,,,,,,,,,,,,,,,,,,,,,,,,,,,,,,,,
1605183839.579651,47.000000,0.000000,4151.922852,4181.282227,4133.717773,4200.897461,4181.922852,4178.077148,4171.538574,4104.487305,4119.487305,4169.487305,4576.282227,4018.846191,4208.974121,4066.281982,0.000000,3.000000,,,,0.000000,4.000000,4.000000,4.000000,4.000000,4.000000,4.000000,4.000000,4.000000,4.000000,4.000000,4.000000,4.000000,4.000000,4.000000,100.000000,,,,,,,,,,,,,,,,,,,,,,,,,,,,,,,,,,,,,,,,,,,,,,,,,,,,,,,,,,,,,,,,,,,,,,
1605183839.587432,48.000000,0.000000,4151.538574,4179.230957,4135.256348,4201.922852,4178.077148,4181.410156,4174.487305,4108.846191,4123.205078,4188.589844,4581.538574,4021.666748,4211.282227,4067.820557,0.000000,3.000000,,,,0.000000,4.000000,4.000000,4.000000,4.000000,4.000000,4.000000,4.000000,4.000000,4.000000,4.000000,4.000000,4.000000,4.000000,4.000000,100.000000,,,,,,,,,,,,,,,,,,,,,,,,,,,,,,,,,,,,,,,,,,,,,,,,,,,,,,,,,,,,,,,,,,,,,,
1605183839.595213,49.000000,0.000000,4161.922852,4185.128418,4141.922852,4211.153809,4182.692383,4192.179688,4182.692383,4112.948730,4123.717773,4224.102539,4592.436035,4025.641113,4206.922852,4070.641113,0.000000,3.000000,,,,0.000000,4.000000,4.000000,4.000000,4.000000,4.000000,4.000000,4.000000,4.000000,4.000000,4.000000,4.000000,4.000000,4.000000,4.000000,100.000000,,,,,,,,,,,,,,,,,,,,,,,,,,,,,,,,,,,,,,,,,,,,,,,,,,,,,,,,,,,,,,,,,,,,,,
1605183839.603094,50.000000,0.000000,4188.846191,4213.846191,4153.717773,4236.153809,4209.358887,4212.307617,4201.410156,4120.256348,4125.641113,4248.846191,4645.512695,4030.897461,4228.717773,4080.897461,0.000000,3.000000,,,,0.000000,4.000000,4.000000,4.000000,4.000000,4.000000,4.000000,4.000000,4.000000,4.000000,4.000000,4.000000,4.000000,4.000000,4.000000,100.000000,,,,,,,,,,,,,,,,,,,,,,,,,,,,,,,,,,,,,,,,,,,,,,,,,,,,,,,,,,,,,,,,,,,,,,
1605183839.610875,51.000000,0.000000,4197.436035,4225.128418,4154.743652,4241.538574,4227.436035,4224.871582,4212.820313,4126.025879,4128.077148,4241.410156,4690.769043,4031.666748,4245.000000,4081.923096,0.000000,3.000000,,,,0.000000,4.000000,4.000000,4.000000,4.000000,4.000000,4.000000,4.000000,4.000000,4.000000,4.000000,4.000000,4.000000,4.000000,4.000000,100.000000,,,,,,,,,,,,,,,,,,,,,,,,,,,,,,,,,,,,,,,,,,,,,,,,,,,,,,,,,,,,,,,,,,,,,,
1605183839.618756,52.000000,0.000000,4205.897461,4225.641113,4166.025879,4250.769043,4232.436035,4235.000000,4225.128418,4139.102539,4135.000000,4254.743652,4720.512695,4039.102539,4252.820313,4088.333252,0.000000,3.000000,,,,0.000000,4.000000,4.000000,4.000000,4.000000,4.000000,4.000000,4.000000,4.000000,4.000000,4.000000,4.000000,4.000000,4.000000,4.000000,100.000000,,,,,,,,,,,,,,,,,,,,,,,,,,,,,,,,,,,,,,,,,,,,,,,,,,,,,,,,,,,,,,,,,,,,,,
1605183839.626537,53.000000,0.000000,4236.282227,4246.153809,4190.128418,4282.820313,4247.692383,4250.641113,4241.025879,4152.948730,4135.256348,4260.256348,4792.179688,4051.281982,4288.717773,4108.333496,0.000000,3.000000,,,,0.000000,4.000000,4.000000,4.000000,4.000000,4.000000,4.000000,4.000000,4.000000,4.000000,4.000000,4.000000,4.000000,4.000000,4.000000,100.000000,,,,,,,,,,,,,,,,,,,,,,,,,,,,,,,,,,,,,,,,,,,,,,,,,,,,,,,,,,,,,,,,,,,,,,
1605183839.634417,54.000000,0.000000,4252.179688,4257.820313,4194.871582,4288.333496,4255.641113,4253.461426,4242.307617,4152.179688,4130.769043,4245.128418,4845.256348,4052.435791,4315.256348,4116.922852,0.000000,3.000000,,,,0.000000,4.000000,4.000000,4.000000,4.000000,4.000000,4.000000,4.000000,4.000000,4.000000,4.000000,4.000000,4.000000,4.000000,4.000000,100.000000,,,,,,,,,,,,,,,,,,,,,,,,,,,,,,,,,,,,,,,,,,,,,,,,,,,,,,,,,,,,,,,,,,,,,,
1605183839.642198,55.000000,0.000000,4255.256348,4253.333496,4191.922852,4271.666504,4255.128418,4252.948730,4240.769043,4149.743652,4134.487305,4297.307617,4841.794922,4045.897461,4306.282227,4111.282227,0.000000,3.000000,,,,0.000000,4.000000,4.000000,4.000000,4.000000,4.000000,4.000000,4.000000,4.000000,4.000000,4.000000,4.000000,4.000000,4.000000,4.000000,100.000000,,,,,,,,,,,,,,,,,,,,,,,,,,,,,,,,,,,,,,,,,,,,,,,,,,,,,,,,,,,,,,,,,,,,,,
1605183839.650079,56.000000,0.000000,4263.974121,4259.743652,4196.538574,4278.333496,4266.282227,4268.846191,4252.307617,4158.717773,4140.512695,4348.589844,4846.538574,4048.589844,4300.000000,4111.538574,0.000000,3.000000,,,,0.000000,4.000000,4.000000,4.000000,4.000000,4.000000,4.000000,4.000000,4.000000,4.000000,4.000000,4.000000,4.000000,4.000000,4.000000,100.000000,,,,,,,,,,,,,,,,,,,,,,,,,,,,,,,,,,,,,,,,,,,,,,,,,,,,,,,,,,,,,,,,,,,,,,
1605183839.657860,57.000000,0.000000,4274.230957,4275.641113,4201.922852,4304.102539,4273.589844,4285.641113,4267.692383,4168.846191,4140.000000,4322.051270,4894.487305,4055.897461,4317.948730,4120.128418,0.000000,3.000000,,,,0.000000,4.000000,4.000000,4.000000,4.000000,4.000000,4.000000,4.000000,4.000000,4.000000,4.000000,4.000000,4.000000,4.000000,4.000000,100.000000,12.937024,3.411084,0.435921,0.773949,0.328590,10.667596,2.571826,0.435175,0.840393,0.363607,2.567069,1.520511,0.400765,0.625292,0.338421,8.925353,2.649710,1.166559,1.869432,1.201383,10.190852,4.871665,1.017036,0.882964,0.828303,8.050474,2.413656,0.778032,0.512010,0.315303,8.022248,1.774970,0.901261,0.512419,0.210834,2.362402,0.734346,0.772338,0.298897,0.103186,0.396805,0.240934,0.363486,0.095961,0.091298,14.456072,3.674860,4.037099,8.861289,4.082226,80.709030,19.253038,5.469307,4.448913,1.777441,0.652461,0.231138,0.091203,0.160156,0.063265,10.813673,2.808208,0.595106,1.061116,0.513379,2.108024,1.090235,0.230131,0.365239,0.212359
1605183839.665740,58.000000,0.000000,4280.897461,4282.179688,4206.922852,4315.512695,4270.256348,4286.282227,4277.179688,4171.666504,4137.692383,4290.769043,4921.794922,4057.435791,4333.333496,4121.025879,0.000000,3.000000,,,,0.000000,4.000000,4.000000,4.000000,4.000000,4.000000,4.000000,4.000000,4.000000,4.000000,4.000000,4.000000,4.000000,4.000000,4.000000,100.000000,,,,,,,,,,,,,,,,,,,,,,,,,,,,,,,,,,,,,,,,,,,,,,,,,,,,,,,,,,,,,,,,,,,,,,
1605183839.673521,59.000000,0.000000,4288.974121,4289.358887,4212.307617,4313.589844,4287.563965,4295.384766,4286.666504,4176.794922,4138.846191,4303.333496,4923.589844,4055.641113,4334.102539,4115.512695,0.000000,3.000000,,,,0.000000,4.000000,4.000000,4.000000,4.000000,4.000000,4.000000,4.000000,4.000000,4.000000,4.000000,4.000000,4.000000,4.000000,4.000000,100.000000,,,,,,,,,,,,,,,,,,,,,,,,,,,,,,,,,,,,,,,,,,,,,,,,,,,,,,,,,,,,,,,,,,,,,,
1605183839.681402,60.000000,0.000000,4287.820313,4293.717773,4213.077148,4305.641113,4301.538574,4305.000000,4290.256348,4178.974121,4135.641113,4314.487305,4915.897461,4054.230713,4324.487305,4110.128418,0.000000,3.000000,,,,0.000000,4.000000,4.000000,4.000000,4.000000,4.000000,4.000000,4.000000,4.000000,4.000000,4.000000,4.000000,4.000000,4.000000,4.000000,100.000000,,,,,,,,,,,,,,,,,,,,,,,,,,,,,,,,,,,,,,,,,,,,,,,,,,,,,,,,,,,,,,,,,,,,,,
1605183839.689183,61.000000,0.000000,4297.179688,4307.307617,4223.846191,4321.153809,4298.333496,4310.128418,4300.769043,4186.666504,4137.692383,4337.820313,4945.769043,4062.051270,4340.384766,4119.615234,0.000000,3.000000,,,,0.000000,4.000000,4.000000,4.000000,4.000000,4.000000,4.000000,4.000000,4.000000,4.000000,4.000000,4.000000,4.000000,4.000000,4.000000,100.000000,,,,,,,,,,,,,,,,,,,,,,,,,,,,,,,,,,,,,,,,,,,,,,,,,,,,,,,,,,,,,,,,,,,,,,
1605183839.696964,62.000000,0.000000,4308.461426,4313.846191,4229.743652,4338.974121,4291.666504,4310.128418,4308.077148,4192.692383,4140.000000,4334.358887,4975.897461,4067.051270,4352.948730,4124.487305,0.000000,3.000000,,,,0.000000,4.000000,4.000000,4.000000,4.000000,4.000000,4.000000,4.000000,4.000000,4.000000,4.000000,4.000000,4.000000,4.000000,4.000000,100.000000,,,,,,,,,,,,,,,,,,,,,,,,,,,,,,,,,,,,,,,,,,,,,,,,,,,,,,,,,,,,,,,,,,,,,,
1605183839.704845,63.000000,0.000000,4317.820313,4319.230957,4232.179688,4342.436035,4302.179688,4317.692383,4313.205078,4194.743652,4139.615234,4302.307617,4981.666504,4066.794922,4349.102539,4123.333496,0.000000,3.000000,,,,0.000000,4.000000,4.000000,4.000000,4.000000,4.000000,4.000000,4.000000,4.000000,4.000000,4.000000,4.000000,4.000000,4.000000,4.000000,100.000000,,,,,,,,,,,,,,,,,,,,,,,,,,,,,,,,,,,,,,,,,,,,,,,,,,,,,,,,,,,,,,,,,,,,,,
1605183839.712626,64.000000,0.000000,4323.717773,4325.641113,4235.128418,4335.384766,4314.102539,4324.230957,4315.128418,4196.666504,4140.512695,4317.692383,4985.769043,4066.153809,4355.128418,4124.871582,2681.000000,3.000000,,,,0.000000,4.000000,4.000000,4.000000,4.000000,4.000000,4.000000,4.000000,4.000000,4.000000,4.000000,4.000000,4.000000,4.000000,4.000000,100.000000,,,,,,,,,,,,,,,,,,,,,,,,,,,,,,,,,,,,,,,,,,,,,,,,,,,,,,,,,,,,,,,,,,,,,,
1605183839.720506,65.000000,0.000000,4325.384766,4325.769043,4236.025879,4337.179688,4321.794922,4327.948730,4322.436035,4203.461426,4148.205078,4345.641113,4997.179688,4068.589844,4364.487305,4126.538574,3283.000000,3.000000,,,,0.000000,4.000000,4.000000,4.000000,4.000000,4.000000,4.000000,4.000000,4.000000,4.000000,4.000000,4.000000,4.000000,4.000000,4.000000,100.000000,,,,,,,,,,,,,,,,,,,,,,,,,,,,,,,,,,,,,,,,,,,,,,,,,,,,,,,,,,,,,,,,,,,,,,
1605183839.728288,66.000000,0.000000,4316.410156,4315.000000,4226.410156,4336.794922,4310.000000,4316.922852,4316.922852,4198.717773,4144.871582,4330.128418,4975.641113,4064.871826,4349.358887,4118.333496,3092.000000,3.000000,,,,0.000000,4.000000,4.000000,4.000000,4.000000,4.000000,4.000000,4.000000,4.000000,4.000000,4.000000,4.000000,4.000000,4.000000,4.000000,100.000000,,,,,,,,,,,,,,,,,,,,,,,,,,,,,,,,,,,,,,,,,,,,,,,,,,,,,,,,,,,,,,,,,,,,,,
1605183839.736168,67.000000,0.000000,4318.589844,4321.794922,4223.205078,4335.000000,4307.307617,4314.615234,4310.384766,4192.692383,4138.974121,4334.230957,4949.358887,4062.564209,4344.487305,4118.974121,3348.000000,3.000000,,,,0.000000,4.000000,4.000000,4.000000,4.000000,4.000000,4.000000,4.000000,4.000000,4.000000,4.000000,4.000000,4.000000,4.000000,4.000000,100.000000,,,,,,,,,,,,,,,,,,,,,,,,,,,,,,,,,,,,,,,,,,,,,,,,,,,,,,,,,,,,,,,,,,,,,,
1605183839.743949,68.000000,0.000000,4322.948730,4328.974121,4223.333496,4332.307617,4307.692383,4320.384766,4312.179688,4194.358887,4139.615234,4323.205078,4947.820313,4063.333252,4354.230957,4122.563965,3519.000000,3.000000,,,,0.000000,4.000000,4.000000,4.000000,4.000000,4.000000,4.000000,4.000000,4.000000,4.000000,4.000000,4.000000,4.000000,4.000000,4.000000,100.000000,,,,,,,,,,,,,,,,,,,,,,,,,,,,,,,,,,,,,,,,,,,,,,,,,,,,,,,,,,,,,,,,,,,,,,
1605183839.751830,69.000000,0.000000,4324.615234,4325.769043,4229.102539,4336.922852,4299.871582,4320.128418,4313.846191,4196.666504,4140.641113,4285.512695,4945.769043,4062.564209,4354.230957,4118.846191,3330.000000,3.000000,,,,0.000000,4.000000,4.000000,4.000000,4.000000,4.000000,4.000000,4.000000,4.000000,4.000000,4.000000,4.000000,4.000000,4.000000,4.000000,100.000000,,,,,,,,,,,,,,,,,,,,,,,,,,,,,,,,,,,,,,,,,,,,,,,,,,,,,,,,,,,,,,,,,,,,,,
1605183839.759611,70.000000,0.000000,4315.000000,4312.948730,4224.615234,4327.436035,4290.897461,4306.282227,4295.256348,4186.538574,4129.615234,4287.051270,4905.641113,4057.307617,4337.692383,4109.615234,3067.000000,3.000000,,,,0.000000,4.000000,4.000000,4.000000,4.000000,4.000000,4.000000,4.000000,4.000000,4.000000,4.000000,4.000000,4.000000,4.000000,4.000000,100.000000,,,,,,,,,,,,,,,,,,,,,,,,,,,,,,,,,,,,,,,,,,,,,,,,,,,,,,,,,,,,,,,,,,,,,,
1605183839.767492,71.000000,0.000000,4303.461426,4303.077148,4214.871582,4315.897461,4285.128418,4295.769043,4275.897461,4177.051270,4126.282227,4308.717773,4855.384766,4056.410156,4325.512695,4108.205078,2163.000000,3.000000,,,,0.000000,4.000000,4.000000,4.000000,4.000000,4.000000,4.000000,4.000000,4.000000,4.000000,4.000000,4.000000,4.000000,4.000000,4.000000,100.000000,,,,,,,,,,,,,,,,,,,,,,,,,,,,,,,,,,,,,,,,,,,,,,,,,,,,,,,,,,,,,,,,,,,,,,
1605183839.775273,72.000000,0.000000,4309.743652,4304.102539,4219.871582,4319.615234,4282.563965,4295.128418,4277.692383,4180.512695,4131.538574,4298.333496,4852.436035,4059.358887,4332.179688,4115.769043,2117.000000,3.000000,,,,0.000000,4.000000,4.000000,4.000000,4.000000,4.000000,4.000000,4.000000,4.000000,4.000000,4.000000,4.000000,4.000000,4.000000,4.000000,100.000000,,,,,,,,,,,,,,,,,,,,,,,,,,,,,,,,,,,,,,,,,,,,,,,,,,,,,,,,,,,,,,,,,,,,,,
1605183839.783154,73.000000,0.000000,4311.538574,4299.358887,4222.563965,4311.025879,4281.794922,4292.948730,4280.641113,4182.820313,4132.436035,4275.128418,4858.974121,4060.897461,4342.436035,4120.512695,3224.000000,3.000000,,,,0.000000,4.000000,4.000000,4.000000,4.000000,4.000000,4.000000,4.000000,4.000000,4.000000,4.000000,4.000000,4.000000,4.000000,4.000000,100.000000,8.392359,4.008863,0.431643,0.739378,0.337551,7.648302,2.938740,0.441046,0.808236,0.332007,1.984987,2.021475,0.352251,0.580325,0.340944,6.278575,3.029497,1.288036,1.980461,1.242747,8.563301,5.785583,1.035905,0.934794,0.824778,6.315930,2.666563,0.756200,0.470511,0.290698,6.258626,1.869988,0.809016,0.469204,0.210277,1.852629,0.906118,0.781684,0.281211,0.105777,0.308283,0.246543,0.334360,0.105497,0.100495,12.498928,4.444883,4.000086,7.933103,4.246729,64.036026,24.047480,5.167710,4.180087,1.731790,0.557233,0.276998,0.078258,0.154159,0.059952,8.728042,3.439241,0.426383,1.010904,0.505678,1.660872,1.288165,0.216736,0.334338,0.209358
1605183839.790935,74.000000,0.000000,4296.922852,4283.846191,4210.000000,4292.563965,4274.487305,4283.461426,4271.666504,4176.025879,4127.563965,4265.512695,4827.948730,4056.923096,4332.307617,4110.384766,3015.000000,3.000000,,,,0.000000,4.000000,4.000000,4.000000,4.000000,4.000000,4.000000,4.000000,4.000000,4.000000,4.000000,4.000000,4.000000,4.000000,4.000000,100.000000,,,,,,,,,,,,,,,,,,,,,,,,,,,,,,,,,,,,,,,,,,,,,,,,,,,,,,,,,,,,,,,,,,,,,,
1605183839.798815,75.000000,0.000000,4290.769043,4277.820313,4206.794922,4292.820313,4260.897461,4276.410156,4268.974121,4173.461426,4128.846191,4274.102539,4788.333496,4056.281982,4321.410156,4106.025879,2263.000000,3.000000,,,,0.000000,4.000000,4.000000,4.000000,4.000000,4.000000,4.000000,4.000000,4.000000,4.000000,4.000000,4.000000,4.000000,4.000000,4.000000,100.000000,,,,,,,,,,,,,,,,,,,,,,,,,,,,,,,,,,,,,,,,,,,,,,,,,,,,,,,,,,,,,,,,,,,,,,
1605183839.806596,76.000000,0.000000,4297.307617,4287.820313,4210.641113,4306.410156,4266.410156,4283.205078,4277.307617,4180.769043,4132.563965,4298.717773,4792.436035,4056.923096,4333.333496,4115.769043,5265.000000,3.000000,,,,0.000000,4.000000,4.000000,4.000000,4.000000,4.000000,4.000000,4.000000,4.000000,4.000000,4.000000,4.000000,4.000000,4.000000,4.000000,100.000000,,,,,,,,,,,,,,,,,,,,,,,,,,,,,,,,,,,,,,,,,,,,,,,,,,,,,,,,,,,,,,,,,,,,,,
1605183839.814477,77.000000,0.000000,4292.948730,4290.769043,4205.641113,4302.179688,4266.794922,4283.461426,4273.717773,4182.051270,4133.974121,4290.897461,4790.512695,4055.384521,4337.051270,4107.820313,1658.000000,3.000000,,,,0.000000,4.000000,4.000000,4.000000,4.000000,4.000000,4.000000,4.000000,4.000000,4.000000,4.000000,4.000000,4.000000,4.000000,4.000000,100.000000,,,,,,,,,,,,,,,,,,,,,,,,,,,,,,,,,,,,,,,,,,,,,,,,,,,,,,,,,,,,,,,,,,,,,,
1605183839.822258,78.000000,0.000000,4288.205078,4285.897461,4208.974121,4291.538574,4251.538574,4275.128418,4268.205078,4179.487305,4135.769043,4271.410156,4771.282227,4058.205078,4330.128418,4089.358887,3015.000000,3.000000,,,,0.000000,4.000000,4.000000,4.000000,4.000000,4.000000,4.000000,4.000000,4.000000,4.000000,4.000000,4.000000,4.000000,4.000000,4.000000,100.000000,,,,,,,,,,,,,,,,,,,,,,,,,,,,,,,,,,,,,,,,,,,,,,,,,,,,,,,,,,,,,,,,,,,,,,
1605183839.830138,79.000000,0.000000,4286.538574,4276.153809,4211.025879,4289.871582,4247.563965,4270.897461,4269.487305,4179.871582,4134.102539,4249.871582,4753.461426,4061.538574,4331.025879,4088.205078,2263.000000,3.000000,,,,0.000000,4.000000,4.000000,4.000000,4.000000,4.000000,4.000000,4.000000,4.000000,4.000000,4.000000,4.000000,4.000000,4.000000,4.000000,100.000000,,,,,,,,,,,,,,,,,,,,,,,,,,,,,,,,,,,,,,,,,,,,,,,,,,,,,,,,,,,,,,,,,,,,,,
1605183839.837919,80.000000,0.000000,4295.256348,4279.230957,4210.641113,4315.512695,4264.871582,4281.282227,4273.717773,4184.743652,4133.846191,4242.307617,4760.897461,4060.384521,4347.692383,4100.256348,5265.000000,3.000000,,,,0.000000,4.000000,4.000000,4.000000,4.000000,4.000000,4.000000,4.000000,4.000000,4.000000,4.000000,4.000000,4.000000,4.000000,4.000000,100.000000,,,,,,,,,,,,,,,,,,,,,,,,,,,,,,,,,,,,,,,,,,,,,,,,,,,,,,,,,,,,,,,,,,,,,,
1605183839.845800,81.000000,0.000000,4299.230957,4283.589844,4211.666504,4342.436035,4267.436035,4278.205078,4265.769043,4181.282227,4127.563965,4287.948730,4763.589844,4058.718018,4352.179688,4100.384766,1658.000000,3.000000,,,,0.000000,4.000000,4.000000,4.000000,4.000000,4.000000,4.000000,4.000000,4.000000,4.000000,4.000000,4.000000,4.000000,4.000000,4.000000,100.000000,,,,,,,,,,,,,,,,,,,,,,,,,,,,,,,,,,,,,,,,,,,,,,,,,,,,,,,,,,,,,,,,,,,,,,
1605183839.853581,82.000000,0.000000,4293.333496,4279.358887,4215.769043,4336.282227,4255.384766,4269.358887,4261.410156,4178.333496,4121.025879,4322.307617,4752.563965,4063.718018,4343.974121,4101.282227,3015.000000,3.000000,,,,0.000000,4.000000,4.000000,4.000000,4.000000,4.000000,4.000000,4.000000,4.000000,4.000000,4.000000,4.000000,4.000000,4.000000,4.000000,100.000000,,,,,,,,,,,,,,,,,,,,,,,,,,,,,,,,,,,,,,,,,,,,,,,,,,,,,,,,,,,,,,,,,,,,,,
1605183839.861461,83.000000,0.000000,4279.743652,4266.410156,4208.205078,4312.820313,4244.871582,4262.436035,4256.282227,4176.794922,4120.000000,4283.846191,4723.717773,4063.076904,4332.563965,4102.692383,2263.000000,3.000000,,,,0.000000,4.000000,4.000000,4.000000,4.000000,4.000000,4.000000,4.000000,4.000000,4.000000,4.000000,4.000000,4.000000,4.000000,4.000000,100.000000,,,,,,,,,,,,,,,,,,,,,,,,,,,,,,,,,,,,,,,,,,,,,,,,,,,,,,,,,,,,,,,,,,,,,,
1605183839.869242,84.000000,0.000000,4278.589844,4266.153809,4200.384766,4321.025879,4247.692383,4260.256348,4253.205078,4176.410156,4123.205078,4261.025879,4713.205078,4060.128174,4340.641113,4100.256348,5265.000000,3.000000,,,,0.000000,4.000000,4.000000,4.000000,4.000000,4.000000,4.000000,4.000000,4.000000,4.000000,4.000000,4.000000,4.000000,4.000000,4.000000,100.000000,,,,,,,,,,,,,,,,,,,,,,,,,,,,,,,,,,,,,,,,,,,,,,,,,,,,,,,,,,,,,,,,,,,,,,
1605183839.877123,85.000000,0.000000,4275.897461,4262.179688,4194.487305,4326.794922,4241.666504,4249.230957,4245.256348,4173.589844,4118.333496,4239.358887,4702.436035,4056.410156,4346.538574,4094.743652,1658.000000,3.000000,,,,0.000000,4.000000,4.000000,4.000000,4.000000,4.000000,4.000000,4.000000,4.000000,4.000000,4.000000,4.000000,4.000000,4.000000,4.000000,100.000000,,,,,,,,,,,,,,,,,,,,,,,,,,,,,,,,,,,,,,,,,,,,,,,,,,,,,,,,,,,,,,,,,,,,,,
1605183839.884903,86.000000,0.000000,4267.051270,4252.820313,4193.333496,4314.358887,4222.820313,4237.051270,4236.153809,4171.666504,4117.179688,4208.846191,4670.128418,4056.666748,4334.615234,4097.436035,3015.000000,3.000000,,,,0.000000,4.000000,4.000000,4.000000,4.000000,4.000000,4.000000,4.000000,4.000000,4.000000,4.000000,4.000000,4.000000,4.000000,4.000000,100.000000,,,,,,,,,,,,,,,,,,,,,,,,,,,,,,,,,,,,,,,,,,,,,,,,,,,,,,,,,,,,,,,,,,,,,,
1605183839.892784,87.000000,0.000000,4261.153809,4242.307617,4192.692383,4301.153809,4202.948730,4226.794922,4228.589844,4168.974121,4119.615234,4248.974121,4636.153809,4058.205078,4321.794922,4099.230957,2263.000000,3.000000,,,,0.000000,4.000000,4.000000,4.000000,4.000000,4.000000,4.000000,4.000000,4.000000,4.000000,4.000000,4.000000,4.000000,4.000000,4.000000,100.000000,,,,,,,,,,,,,,,,,,,,,,,,,,,,,,,,,,,,,,,,,,,,,,,,,,,,,,,,,,,,,,,,,,,,,,
1605183839.900564,88.000000,0.000000,4263.205078,4232.307617,4188.589844,4291.282227,4210.769043,4227.692383,4228.077148,4169.230957,4122.436035,4296.025879,4621.282227,4057.692383,4323.077148,4095.000000,5265.000000,3.000000,,,,0.000000,4.000000,4.000000,4.000000,4.000000,4.000000,4.000000,4.000000,4.000000,4.000000,4.000000,4.000000,4.000000,4.000000,4.000000,100.000000,,,,,,,,,,,,,,,,,,,,,,,,,,,,,,,,,,,,,,,,,,,,,,,,,,,,,,,,,,,,,,,,,,,,,,
1605183839.908345,89.000000,0.000000,4255.769043,4220.384766,4181.794922,4273.077148,4217.820313,4226.282227,4219.358887,4162.179688,4117.051270,4229.743652,4602.307617,4052.820557,4318.717773,4088.076904,1658.000000,3.000000,,,,0.000000,4.000000,4.000000,4.000000,4.000000,4.000000,4.000000,4.000000,4.000000,4.000000,4.000000,4.000000,4.000000,4.000000,4.000000,100.000000,5.500739,4.457042,0.480108,0.682517,0.359660,5.144751,3.159336,0.439099,0.746986,0.295648,1.584748,2.403878,0.307188,0.533096,0.340920,4.210790,3.331700,1.441649,1.992728,1.272642,6.650230,6.408531,1.032381,0.966430,0.783530,4.447667,2.816790,0.684206,0.419604,0.260301,4.369275,1.947316,0.679749,0.411337,0.202637,1.328906,1.053456,0.732031,0.251649,0.107737,0.221380,0.246277,0.282821,0.112661,0.109828,9.822588,5.055621,3.902999,6.827001,4.538243,48.420063,27.645689,4.813232,3.783888,1.667778,0.461705,0.320764,0.069656,0.136735,0.058128,7.095128,3.892506,0.348848,0.938854,0.510910,1.292990,1.449545,0.211626,0.287584,0.206200
1605183839.916226,90.000000,0.000000,4238.717773,4211.794922,4182.307617,4268.333496,4203.717773,4215.000000,4208.846191,4151.794922,4112.436035,4163.846191,4560.769043,4049.230713,4304.358887,4085.384521,3015.000000,3.000000,,,,0.000000,4.000000,4.000000,4.000000,4.000000,4.000000,4.000000,4.000000,4.000000,4.000000,4.000000,4.000000,4.000000,4.000000,4.000000,100.000000,,,,,,,,,,,,,,,,,,,,,,,,,,,,,,,,,,,,,,,,,,,,,,,,,,,,,,,,,,,,,,,,,,,,,,
1605183839.924007,91.000000,0.000000,4227.820313,4202.179688,4176.538574,4262.051270,4193.717773,4209.230957,4206.025879,4149.615234,4113.077148,4196.282227,4521.922852,4047.307617,4293.077148,4083.333252,2263.000000,3.000000,,,,0.000000,4.000000,4.000000,4.000000,4.000000,4.000000,4.000000,4.000000,4.000000,4.000000,4.000000,4.000000,4.000000,4.000000,4.000000,100.000000,,,,,,,,,,,,,,,,,,,,,,,,,,,,,,,,,,,,,,,,,,,,,,,,,,,,,,,,,,,,,,,,,,,,,,
1605183839.931888,92.000000,0.000000,4219.743652,4186.410156,4156.666504,4236.410156,4189.358887,4202.307617,4193.333496,4148.333496,4110.769043,4238.846191,4486.025879,4047.307617,4282.563965,4079.102539,5265.000000,3.000000,,,,0.000000,4.000000,4.000000,4.000000,4.000000,4.000000,4.000000,4.000000,4.000000,4.000000,4.000000,4.000000,4.000000,4.000000,4.000000,100.000000,,,,,,,,,,,,,,,,,,,,,,,,,,,,,,,,,,,,,,,,,,,,,,,,,,,,,,,,,,,,,,,,,,,,,,
1605183839.939669,93.000000,0.000000,4213.077148,4179.871582,4157.436035,4234.230957,4172.307617,4186.538574,4177.820313,4140.384766,4106.153809,4228.205078,4458.846191,4044.358887,4274.871582,4074.615479,1658.000000,3.000000,,,,0.000000,4.000000,4.000000,4.000000,4.000000,4.000000,4.000000,4.000000,4.000000,4.000000,4.000000,4.000000,4.000000,4.000000,4.000000,100.000000,,,,,,,,,,,,,,,,,,,,,,,,,,,,,,,,,,,,,,,,,,,,,,,,,,,,,,,,,,,,,,,,,,,,,,
1605183839.947550,94.000000,0.000000,4209.871582,4178.205078,4170.256348,4243.205078,4152.436035,4175.512695,4176.410156,4135.641113,4108.846191,4182.179688,4419.102539,4038.846191,4264.102539,4071.794922,3015.000000,3.000000,,,,0.000000,4.000000,4.000000,4.000000,4.000000,4.000000,4.000000,4.000000,4.000000,4.000000,4.000000,4.000000,4.000000,4.000000,4.000000,100.000000,,,,,,,,,,,,,,,,,,,,,,,,,,,,,,,,,,,,,,,,,,,,,,,,,,,,,,,,,,,,,,,,,,,,,,
1605183839.955330,95.000000,0.000000,4210.512695,4176.153809,4159.358887,4231.282227,4154.487305,4177.051270,4179.230957,4137.563965,4116.666504,4168.205078,4395.000000,4042.564209,4259.615234,4075.000000,2263.000000,3.000000,,,,0.000000,4.000000,4.000000,4.000000,4.000000,4.000000,4.000000,4.000000,4.000000,4.000000,4.000000,4.000000,4.000000,4.000000,4.000000,100.000000,,,,,,,,,,,,,,,,,,,,,,,,,,,,,,,,,,,,,,,,,,,,,,,,,,,,,,,,,,,,,,,,,,,,,,
1605183839.963111,96.000000,0.000000,4203.205078,4162.948730,4141.666504,4213.717773,4152.179688,4170.897461,4167.051270,4132.307617,4114.615234,4179.871582,4388.077148,4047.564209,4257.307617,4075.512939,5265.000000,3.000000,,,,0.000000,4.000000,4.000000,4.000000,4.000000,4.000000,4.000000,4.000000,4.000000,4.000000,4.000000,4.000000,4.000000,4.000000,4.000000,100.000000,,,,,,,,,,,,,,,,,,,,,,,,,,,,,,,,,,,,,,,,,,,,,,,,,,,,,,,,,,,,,,,,,,,,,,
1605183839.970992,97.000000,0.000000,4196.794922,4153.077148,4149.743652,4221.282227,4159.102539,4163.205078,4160.384766,4128.974121,4110.512695,4158.077148,4376.794922,4042.948730,4254.615234,4077.435791,1658.000000,3.000000,,,,0.000000,4.000000,4.000000,4.000000,4.000000,4.000000,4.000000,4.000000,4.000000,4.000000,4.000000,4.000000,4.000000,4.000000,4.000000,100.000000,,,,,,,,,,,,,,,,,,,,,,,,,,,,,,,,,,,,,,,,,,,,,,,,,,,,,,,,,,,,,,,,,,,,,,
1605183839.978873,98.000000,0.000000,4191.025879,4154.102539,4153.974121,4228.974121,4154.871582,4152.307617,4157.436035,4127.436035,4108.846191,4125.384766,4341.410156,4035.256348,4238.717773,4080.384521,3015.000000,3.000000,,,,0.000000,4.000000,4.000000,4.000000,4.000000,4.000000,4.000000,4.000000,4.000000,4.000000,4.000000,4.000000,4.000000,4.000000,4.000000,100.000000,,,,,,,,,,,,,,,,,,,,,,,,,,,,,,,,,,,,,,,,,,,,,,,,,,,,,,,,,,,,,,,,,,,,,,
1605183839.986654,99.000000,0.000000,4196.282227,4165.128418,4151.025879,4225.256348,4137.179688,4152.307617,4160.128418,4129.230957,4113.205078,4143.205078,4327.692383,4036.923096,4232.820313,4084.230713,2263.000000,3.000000,,,,0.000000,4.000000,4.000000,4.000000,4.000000,4.000000,4.000000,4.000000,4.000000,4.000000,4.000000,4.000000,4.000000,4.000000,4.000000,100.000000,,,,,,,,,,,,,,,,,,,,,,,,,,,,,,,,,,,,,,,,,,,,,,,,,,,,,,,,,,,,,,,,,,,,,,
1605183839.994435,100.000000,0.000000,4200.256348,4164.230957,4152.179688,4217.820313,4138.589844,4155.512695,4157.307617,4127.692383,4113.205078,4159.743652,4334.615234,4040.512939,4246.282227,4084.358887,5265.000000,3.000000,,,,0.000000,4.000000,4.000000,4.000000,4.000000,4.000000,4.000000,4.000000,4.000000,4.000000,4.000000,4.000000,4.000000,4.000000,4.000000,100.000000,,,,,,,,,,,,,,,,,,,,,,,,,,,,,,,,,,,,,,,,,,,,,,,,,,,,,,,,,,,,,,,,,,,,,,
1605183840.002316,101.000000,0.000000,4196.538574,4158.717773,4153.717773,4217.563965,4156.282227,4153.589844,4149.615234,4124.743652,4109.871582,4156.666504,4338.589844,4040.512939,4256.025879,4085.384521,1658.000000,3.000000,,,,0.000000,4.000000,4.000000,4.000000,4.000000,4.000000,4.000000,4.000000,4.000000,4.000000,4.000000,4.000000,4.000000,4.000000,4.000000,100.000000,,,,,,,,,,,,,,,,,,,,,,,,,,,,,,,,,,,,,,,,,,,,,,,,,,,,,,,,,,,,,,,,,,,,,,
1605183840.010098,102.000000,0.000000,4181.922852,4145.000000,4141.025879,4211.922852,4143.846191,4141.410156,4139.743652,4116.666504,4104.358887,4142.948730,4303.846191,4033.205078,4233.333496,4077.307617,3015.000000,3.000000,,,,0.000000,4.000000,4.000000,4.000000,4.000000,4.000000,4.000000,4.000000,4.000000,4.000000,4.000000,4.000000,4.000000,4.000000,4.000000,100.000000,,,,,,,,,,,,,,,,,,,,,,,,,,,,,,,,,,,,,,,,,,,,,,,,,,,,,,,,,,,,,,,,,,,,,,
1605183840.018079,103.000000,0.000000,4174.487305,4136.922852,4131.538574,4201.666504,4135.128418,4139.358887,4139.615234,4116.794922,4107.563965,4118.717773,4265.641113,4032.179443,4216.282227,4071.538574,2263.000000,3.000000,,,,0.000000,4.000000,4.000000,4.000000,4.000000,4.000000,4.000000,4.000000,4.000000,4.000000,4.000000,4.000000,4.000000,4.000000,4.000000,100.000000,,,,,,,,,,,,,,,,,,,,,,,,,,,,,,,,,,,,,,,,,,,,,,,,,,,,,,,,,,,,,,,,,,,,,,
1605183840.025961,104.000000,0.000000,4166.153809,4130.641113,4130.641113,4181.410156,4146.025879,4136.666504,4133.461426,4115.769043,4111.538574,4116.282227,4248.974121,4032.820557,4213.717773,4070.384521,5265.000000,3.000000,,,,0.000000,4.000000,4.000000,4.000000,4.000000,4.000000,4.000000,4.000000,4.000000,4.000000,4.000000,4.000000,4.000000,4.000000,4.000000,100.000000,,,,,,,,,,,,,,,,,,,,,,,,,,,,,,,,,,,,,,,,,,,,,,,,,,,,,,,,,,,,,,,,,,,,,,
1605183840.033843,105.000000,0.000000,4158.077148,4125.256348,4133.333496,4180.641113,4136.538574,4129.102539,4126.922852,4107.179688,4110.897461,4148.077148,4233.205078,4028.076904,4208.333496,4067.179443,1658.000000,3.000000,,,,0.000000,4.000000,4.000000,4.000000,4.000000,4.000000,4.000000,4.000000,4.000000,4.000000,4.000000,4.000000,4.000000,4.000000,4.000000,100.000000,3.789152,4.588897,0.593167,0.615378,0.388596,3.298298,3.122853,0.457050,0.679759,0.263923,1.353682,2.541495,0.287589,0.489540,0.335773,3.022561,3.432462,1.599494,1.883934,1.294584,4.786737,6.508317,1.025218,0.983400,0.713327,2.942614,2.764410,0.580986,0.379849,0.227940,2.825556,1.944502,0.539362,0.361627,0.188234,0.945007,1.133981,0.642641,0.218087,0.108549,0.159605,0.241132,0.221457,0.114974,0.117904,7.316113,5.314475,3.700476,5.969636,4.885889,36.052216,29.066484,4.609832,3.385055,1.611258,0.400689,0.349016,0.069081,0.112524,0.058522,5.984706,4.078644,0.385031,0.859500,0.528244,1.002669,1.528120,0.228926,0.234238,0.205546
1605183840.041725,106.000000,0.000000,4153.717773,4121.410156,4127.820313,4192.179688,4113.846191,4120.897461,4124.871582,4102.179688,4106.153809,4137.051270,4207.692383,4024.871826,4196.282227,4061.666748,3015.000000,3.000000,,,,0.000000,4.000000,4.000000,4.000000,4.000000,4.000000,4.000000,4.000000,4.000000,4.000000,4.000000,4.000000,4.000000,4.000000,4.000000,100.000000,,,,,,,,,,,,,,,,,,,,,,,,,,,,,,,,,,,,,,,,,,,,,,,,,,,,,,,,,,,,,,,,,,,,,,
1605183840.049506,107.000000,0.000000,4153.333496,4122.948730,4125.384766,4179.487305,4120.384766,4122.820313,4125.641113,4108.717773,4107.948730,4101.794922,4200.769043,4031.281982,4194.487305,4064.487061,2263.000000,3.000000,,,,0.000000,4.000000,4.000000,4.000000,4.000000,4.000000,4.000000,4.000000,4.000000,4.000000,4.000000,4.000000,4.000000,4.000000,4.000000,100.000000,,,,,,,,,,,,,,,,,,,,,,,,,,,,,,,,,,,,,,,,,,,,,,,,,,,,,,,,,,,,,,,,,,,,,,
1605183840.057387,108.000000,0.000000,4147.436035,4116.922852,4124.487305,4159.358887,4121.666504,4119.102539,4117.179688,4108.717773,4105.384766,4090.897461,4194.487305,4029.102539,4194.230957,4063.974365,5265.000000,3.000000,,,,0.000000,4.000000,4.000000,4.000000,4.000000,4.000000,4.000000,4.000000,4.000000,4.000000,4.000000,4.000000,4.000000,4.000000,4.000000,100.000000,,,,,,,,,,,,,,,,,,,,,,,,,,,,,,,,,,,,,,,,,,,,,,,,,,,,,,,,,,,,,,,,,,,,,,
1605183840.065169,109.000000,0.000000,4142.179688,4108.333496,4121.282227,4166.794922,4104.871582,4108.589844,4109.743652,4103.974121,4103.077148,4092.435791,4164.487305,4024.358887,4191.538574,4059.743652,1658.000000,3.000000,,,,0.000000,4.000000,4.000000,4.000000,4.000000,4.000000,4.000000,4.000000,4.000000,4.000000,4.000000,4.000000,4.000000,4.000000,4.000000,100.000000,,,,,,,,,,,,,,,,,,,,,,,,,,,,,,,,,,,,,,,,,,,,,,,,,,,,,,,,,,,,,,,,,,,,,,
1605183840.073050,110.000000,0.000000,4145.128418,4109.102539,4120.512695,4176.538574,4107.436035,4110.897461,4113.846191,4107.051270,4109.358887,4118.589844,4160.512695,4028.974365,4191.025879,4061.538574,3015.000000,3.000000,,,,0.000000,4.000000,4.000000,4.000000,4.000000,4.000000,4.000000,4.000000,4.000000,4.000000,4.000000,4.000000,4.000000,4.000000,4.000000,100.000000,,,,,,,,,,,,,,,,,,,,,,,,,,,,,,,,,,,,,,,,,,,,,,,,,,,,,,,,,,,,,,,,,,,,,,
1605183840.080831,111.000000,0.000000,4144.487305,4112.051270,4120.769043,4170.897461,4123.846191,4122.692383,4119.230957,4110.000000,4114.743652,4134.487305,4174.743652,4032.564209,4188.461426,4064.230713,2263.000000,3.000000,,,,0.000000,4.000000,4.000000,4.000000,4.000000,4.000000,4.000000,4.000000,4.000000,4.000000,4.000000,4.000000,4.000000,4.000000,4.000000,100.000000,,,,,,,,,,,,,,,,,,,,,,,,,,,,,,,,,,,,,,,,,,,,,,,,,,,,,,,,,,,,,,,,,,,,,,
1605183840.088712,112.000000,0.000000,4136.282227,4108.717773,4118.077148,4165.128418,4125.769043,4124.743652,4118.205078,4106.794922,4111.922852,4105.897461,4167.563965,4029.615479,4181.025879,4062.051270,5265.000000,3.000000,,,,0.000000,4.000000,4.000000,4.000000,4.000000,4.000000,4.000000,4.000000,4.000000,4.000000,4.000000,4.000000,4.000000,4.000000,4.000000,100.000000,,,,,,,,,,,,,,,,,,,,,,,,,,,,,,,,,,,,,,,,,,,,,,,,,,,,,,,,,,,,,,,,,,,,,,
1605183840.096494,113.000000,0.000000,4122.563965,4095.769287,4111.282227,4153.974121,4107.820313,4111.025879,4112.563965,4102.563965,4112.051270,4083.205078,4131.410156,4026.410156,4163.589844,4056.153809,1658.000000,3.000000,,,,0.000000,4.000000,4.000000,4.000000,4.000000,4.000000,4.000000,4.000000,4.000000,4.000000,4.000000,4.000000,4.000000,4.000000,4.000000,100.000000,,,,,,,,,,,,,,,,,,,,,,,,,,,,,,,,,,,,,,,,,,,,,,,,,,,,,,,,,,,,,,,,,,,,,,
1605183840.104375,114.000000,0.000000,4119.102539,4088.846191,4112.179688,4152.692383,4096.025879,4107.436035,4113.589844,4105.000000,4115.128418,4102.820313,4115.384766,4023.718018,4159.487305,4052.307617,3015.000000,3.000000,,,,0.000000,4.000000,4.000000,4.000000,4.000000,4.000000,4.000000,4.000000,4.000000,4.000000,4.000000,4.000000,4.000000,4.000000,4.000000,100.000000,,,,,,,,,,,,,,,,,,,,,,,,,,,,,,,,,,,,,,,,,,,,,,,,,,,,,,,,,,,,,,,,,,,,,,
1605183840.112156,115.000000,0.000000,4122.820313,4091.923096,4114.487305,4162.307617,4107.179688,4118.205078,4116.922852,4105.384766,4112.051270,4113.846191,4124.487305,4023.076904,4167.307617,4052.051270,2263.000000,3.000000,,,,0.000000,4.000000,4.000000,4.000000,4.000000,4.000000,4.000000,4.000000,4.000000,4.000000,4.000000,4.000000,4.000000,4.000000,4.000000,100.000000,,,,,,,,,,,,,,,,,,,,,,,,,,,,,,,,,,,,,,,,,,,,,,,,,,,,,,,,,,,,,,,,,,,,,,
1605183840.119937,116.000000,0.000000,4124.615234,4099.871582,4116.153809,4157.051270,4130.256348,4125.256348,4121.538574,4103.333496,4110.128418,4110.512695,4141.410156,4027.307617,4170.128418,4055.769287,5265.000000,3.000000,,,,0.000000,4.000000,4.000000,4.000000,4.000000,4.000000,4.000000,4.000000,4.000000,4.000000,4.000000,4.000000,4.000000,4.000000,4.000000,100.000000,,,,,,,,,,,,,,,,,,,,,,,,,,,,,,,,,,,,,,,,,,,,,,,,,,,,,,,,,,,,,,,,,,,,,,
1605183840.127819,117.000000,0.000000,4118.077148,4097.948730,4117.563965,4147.179688,4115.256348,4111.794922,4113.974121,4098.717773,4106.282227,4092.051270,4125.000000,4026.538574,4157.948730,4056.410156,1658.000000,3.000000,,,,0.000000,4.000000,4.000000,4.000000,4.000000,4.000000,4.000000,4.000000,4.000000,4.000000,4.000000,4.000000,4.000000,4.000000,4.000000,100.000000,,,,,,,,,,,,,,,,,,,,,,,,,,,,,,,,,,,,,,,,,,,,,,,,,,,,,,,,,,,,,,,,,,,,,,
1605183840.135701,118.000000,0.000000,4127.179688,4099.743652,4124.871582,4168.333496,4094.615479,4111.410156,4115.256348,4101.025879,4111.282227,4080.769287,4118.846191,4026.025635,4157.563965,4061.666748,3015.000000,3.000000,,,,0.000000,4.000000,4.000000,4.000000,4.000000,4.000000,4.000000,4.000000,4.000000,4.000000,4.000000,4.000000,4.000000,4.000000,4.000000,100.000000,,,,,,,,,,,,,,,,,,,,,,,,,,,,,,,,,,,,,,,,,,,,,,,,,,,,,,,,,,,,,,,,,,,,,,
1605183840.143582,119.000000,0.000000,4133.589844,4099.487305,4120.000000,4169.871582,4098.077148,4118.461426,4122.948730,4103.974121,4117.436035,4094.743652,4130.769043,4028.718018,4160.384766,4065.256348,2263.000000,3.000000,,,,0.000000,4.000000,4.000000,4.000000,4.000000,4.000000,4.000000,4.000000,4.000000,4.000000,4.000000,4.000000,4.000000,4.000000,4.000000,100.000000,,,,,,,,,,,,,,,,,,,,,,,,,,,,,,,,,,,,,,,,,,,,,,,,,,,,,,,,,,,,,,,,,,,,,,
1605183840.151363,120.000000,0.000000,4124.615234,4106.153809,4115.897461,4156.794922,4102.820313,4115.641113,4123.333496,4104.743652,4116.282227,4117.692383,4135.897461,4029.230713,4160.769043,4066.153809,5265.000000,3.000000,,,,0.000000,4.000000,4.000000,4.000000,4.000000,4.000000,4.000000,4.000000,4.000000,4.000000,4.000000,4.000000,4.000000,4.000000,4.000000,100.000000,,,,,,,,,,,,,,,,,,,,,,,,,,,,,,,,,,,,,,,,,,,,,,,,,,,,,,,,,,,,,,,,,,,,,,
1605183840.159144,121.000000,0.000000,4116.282227,4108.077148,4120.000000,4156.794922,4093.205078,4107.692383,4113.846191,4102.051270,4110.512695,4120.256348,4128.205078,4026.281982,4161.538574,4065.000000,1658.000000,3.000000,,,,0.000000,4.000000,4.000000,4.000000,4.000000,4.000000,4.000000,4.000000,4.000000,4.000000,4.000000,4.000000,4.000000,4.000000,4.000000,100.000000,3.022783,4.362049,0.745040,0.545227,0.412166,2.427047,2.814580,0.502320,0.620808,0.243722,1.344919,2.385817,0.304727,0.446299,0.322785,3.050561,3.283438,1.700176,1.668992,1.300303,3.700634,5.992119,1.015932,0.982025,0.632519,2.268299,2.468843,0.469333,0.357793,0.198733,2.162407,1.822508,0.410605,0.331677,0.170630,0.862652,1.124048,0.535470,0.185653,0.108294,0.131870,0.235500,0.164330,0.111496,0.122847,5.958983,5.116864,3.392133,5.754854,5.174711,31.321529,27.932899,4.612753,3.041986,1.578894,0.402692,0.352733,0.077313,0.087005,0.061182,5.606685,3.976097,0.516533,0.779473,0.552358,0.859657,1.513364,0.276186,0.183455,0.208317
1605183840.167025,122.000000,0.000000,4125.897461,4110.512695,4123.974121,4165.128418,4102.179688,4112.307617,4115.641113,4103.846191,4111.922852,4100.897461,4134.487305,4029.615479,4165.512695,4068.589844,3015.000000,3.000000,,,,0.000000,4.000000,4.000000,4.000000,4.000000,4.000000,4.000000,4.000000,4.000000,4.000000,4.000000,4.000000,4.000000,4.000000,4.000000,100.000000,,,,,,,,,,,,,,,,,,,,,,,,,,,,,,,,,,,,,,,,,,,,,,,,,,,,,,,,,,,,,,,,,,,,,,
1605183840.174806,123.000000,0.000000,4129.358887,4115.769043,4120.769043,4165.769043,4108.589844,4116.410156,4117.948730,4103.974121,4111.410156,4093.205078,4132.051270,4031.281982,4159.615234,4066.025635,2263.000000,3.000000,,,,0.000000,4.000000,4.000000,4.000000,4.000000,4.000000,4.000000,4.000000,4.000000,4.000000,4.000000,4.000000,4.000000,4.000000,4.000000,100.000000,,,,,,,,,,,,,,,,,,,,,,,,,,,,,,,,,,,,,,,,,,,,,,,,,,,,,,,,,,,,,,,,,,,,,,
1605183840.182687,124.000000,0.000000,4132.436035,4125.897461,4126.410156,4172.179688,4109.871582,4123.461426,4120.897461,4105.512695,4113.974121,4106.922852,4141.666504,4034.615479,4165.128418,4069.487061,5265.000000,3.000000,,,,0.000000,4.000000,4.000000,4.000000,4.000000,4.000000,4.000000,4.000000,4.000000,4.000000,4.000000,4.000000,4.000000,4.000000,4.000000,100.000000,,,,,,,,,,,,,,,,,,,,,,,,,,,,,,,,,,,,,,,,,,,,,,,,,,,,,,,,,,,,,,,,,,,,,,
1605183840.190468,125.000000,0.000000,4136.282227,4125.641113,4127.820313,4168.461426,4118.461426,4126.538574,4124.743652,4106.282227,4117.436035,4103.205078,4165.769043,4036.025635,4176.922852,4075.384521,1658.000000,3.000000,,,,0.000000,4.000000,4.000000,4.000000,4.000000,4.000000,4.000000,4.000000,4.000000,4.000000,4.000000,4.000000,4.000000,4.000000,4.000000,100.000000,,,,,,,,,,,,,,,,,,,,,,,,,,,,,,,,,,,,,,,,,,,,,,,,,,,,,,,,,,,,,,,,,,,,,,
1605183840.198349,126.000000,0.000000,4135.641113,4125.769043,4123.846191,4156.025879,4135.000000,4128.846191,4126.282227,4105.384766,4118.717773,4112.051270,4169.871582,4033.718018,4173.333496,4076.153809,3015.000000,3.000000,,,,0.000000,4.000000,4.000000,4.000000,4.000000,4.000000,4.000000,4.000000,4.000000,4.000000,4.000000,4.000000,4.000000,4.000000,4.000000,100.000000,,,,,,,,,,,,,,,,,,,,,,,,,,,,,,,,,,,,,,,,,,,,,,,,,,,,,,,,,,,,,,,,,,,,,,
1605183840.206130,127.000000,0.000000,4144.487305,4142.820313,4131.282227,4176.538574,4144.743652,4139.487305,4132.051270,4110.128418,4122.307617,4141.025879,4190.384766,4034.871826,4173.717773,4080.128174,52.000000,3.000000,,,,0.000000,4.000000,4.000000,4.000000,4.000000,4.000000,4.000000,4.000000,4.000000,4.000000,4.000000,4.000000,4.000000,4.000000,4.000000,100.000000,,,,,,,,,,,,,,,,,,,,,,,,,,,,,,,,,,,,,,,,,,,,,,,,,,,,,,,,,,,,,,,,,,,,,,
1605183840.213911,0.000000,0.000000,4158.333496,4156.922852,4143.333496,4205.897461,4142.820313,4150.000000,4148.717773,4123.461426,4130.897461,4166.794922,4234.615234,4041.538574,4187.307617,4085.384521,2674.000000,3.000000,,,,0.000000,4.000000,4.000000,4.000000,4.000000,4.000000,4.000000,4.000000,4.000000,4.000000,4.000000,4.000000,4.000000,4.000000,4.000000,100.000000,,,,,,,,,,,,,,,,,,,,,,,,,,,,,,,,,,,,,,,,,,,,,,,,,,,,,,,,,,,,,,,,,,,,,,
1605183840.221793,1.000000,0.000000,4157.948730,4156.153809,4143.461426,4198.077148,4149.743652,4156.794922,4162.692383,4133.077148,4128.589844,4169.230957,4264.230957,4042.948730,4197.948730,4086.410156,3242.000000,3.000000,,,,0.000000,4.000000,4.000000,4.000000,4.000000,4.000000,4.000000,4.000000,4.000000,4.000000,4.000000,4.000000,4.000000,4.000000,4.000000,100.000000,,,,,,,,,,,,,,,,,,,,,,,,,,,,,,,,,,,,,,,,,,,,,,,,,,,,,,,,,,,,,,,,,,,,,,
1605183840.229574,2.000000,0.000000,4153.589844,4151.666504,4141.282227,4183.846191,4162.307617,4161.538574,4165.000000,4131.410156,4121.922852,4137.179688,4269.615234,4041.025635,4205.000000,4085.769287,3052.000000,3.000000,,,,0.000000,4.000000,4.000000,4.000000,4.000000,4.000000,4.000000,4.000000,4.000000,4.000000,4.000000,4.000000,4.000000,4.000000,4.000000,100.000000,,,,,,,,,,,,,,,,,,,,,,,,,,,,,,,,,,,,,,,,,,,,,,,,,,,,,,,,,,,,,,,,,,,,,,
1605183840.237455,3.000000,0.000000,4158.333496,4157.307617,4144.871582,4196.666504,4167.820313,4161.922852,4163.205078,4123.461426,4118.333496,4124.358887,4272.692383,4039.615479,4203.974121,4086.025635,3299.000000,3.000000,,,,0.000000,4.000000,4.000000,4.000000,4.000000,4.000000,4.000000,4.000000,4.000000,4.000000,4.000000,4.000000,4.000000,4.000000,4.000000,100.000000,,,,,,,,,,,,,,,,,,,,,,,,,,,,,,,,,,,,,,,,,,,,,,,,,,,,,,,,,,,,,,,,,,,,,,
1605183840.245236,4.000000,0.000000,4157.436035,4164.615234,4143.077148,4199.487305,4174.358887,4160.897461,4163.333496,4119.230957,4116.410156,4171.025879,4266.538574,4038.589844,4189.358887,4086.025635,3471.000000,3.000000,,,,0.000000,4.000000,4.000000,4.000000,4.000000,4.000000,4.000000,4.000000,4.000000,4.000000,4.000000,4.000000,4.000000,4.000000,4.000000,100.000000,,,,,,,,,,,,,,,,,,,,,,,,,,,,,,,,,,,,,,,,,,,,,,,,,,,,,,,,,,,,,,,,,,,,,,
1605183840.253117,5.000000,0.000000,4170.000000,4176.666504,4148.077148,4195.641113,4191.025879,4177.820313,4174.487305,4127.948730,4121.794922,4219.615234,4301.410156,4045.384521,4206.666504,4098.333496,3273.000000,3.000000,,,,0.000000,4.000000,4.000000,4.000000,4.000000,4.000000,4.000000,4.000000,4.000000,4.000000,4.000000,4.000000,4.000000,4.000000,4.000000,100.000000,,,,,,,,,,,,,,,,,,,,,,,,,,,,,,,,,,,,,,,,,,,,,,,,,,,,,,,,,,,,,,,,,,,,,,
1605183840.260898,6.000000,0.000000,4201.153809,4189.743652,4162.948730,4213.974121,4190.000000,4189.230957,4181.538574,4135.769043,4127.307617,4210.256348,4356.922852,4052.948730,4239.230957,4114.358887,3031.000000,3.000000,,,,0.000000,4.000000,4.000000,4.000000,4.000000,4.000000,4.000000,4.000000,4.000000,4.000000,4.000000,4.000000,4.000000,4.000000,4.000000,100.000000,,,,,,,,,,,,,,,,,,,,,,,,,,,,,,,,,,,,,,,,,,,,,,,,,,,,,,,,,,,,,,,,,,,,,,
1605183840.268680,7.000000,0.000000,4234.615234,4212.563965,4180.384766,4247.692383,4191.410156,4190.256348,4185.256348,4138.205078,4129.487305,4201.666504,4401.282227,4056.538574,4246.666504,4125.897461,2137.000000,3.000000,,,,0.000000,4.000000,4.000000,4.000000,4.000000,4.000000,4.000000,4.000000,4.000000,4.000000,4.000000,4.000000,4.000000,4.000000,4.000000,100.000000,,,,,,,,,,,,,,,,,,,,,,,,,,,,,,,,,,,,,,,,,,,,,,,,,,,,,,,,,,,,,,,,,,,,,,
1605183840.276561,8.000000,0.000000,4252.692383,4230.769043,4186.666504,4256.282227,4200.897461,4183.077148,4181.922852,4137.179688,4128.205078,4184.743652,4429.743652,4060.641113,4249.358887,4133.205078,2121.000000,3.000000,,,,0.000000,4.000000,4.000000,4.000000,4.000000,4.000000,4.000000,4.000000,4.000000,4.000000,4.000000,4.000000,4.000000,4.000000,4.000000,100.000000,,,,,,,,,,,,,,,,,,,,,,,,,,,,,,,,,,,,,,,,,,,,,,,,,,,,,,,,,,,,,,,,,,,,,,
1605183840.284443,9.000000,0.000000,4268.589844,4237.307617,4190.256348,4248.846191,4201.666504,4180.256348,4182.692383,4140.384766,4129.743652,4188.846191,4453.205078,4064.871826,4271.666504,4141.025879,3250.000000,3.000000,,,,0.000000,4.000000,4.000000,4.000000,4.000000,4.000000,4.000000,4.000000,4.000000,4.000000,4.000000,4.000000,4.000000,4.000000,4.000000,100.000000,2.689283,3.839563,0.878502,0.475651,0.417971,2.260472,2.314187,0.558689,0.570865,0.236849,1.463614,1.982895,0.358231,0.396924,0.301478,4.128798,2.947355,1.687264,1.390685,1.277077,3.277422,4.965771,1.002023,0.955162,0.563666,2.296859,1.986434,0.372265,0.346553,0.177627,2.304339,1.596144,0.309029,0.318671,0.154705,1.060035,1.031836,0.428733,0.156094,0.107253,0.129320,0.234446,0.122170,0.103197,0.123122,5.854245,4.491629,3.005188,6.285697,5.317380,33.710476,24.574543,4.737462,2.748765,1.573355,0.468696,0.331224,0.091746,0.064870,0.065419,5.894593,3.616435,0.695924,0.703173,0.576218,0.809061,1.425425,0.344046,0.142507,0.212895
1605183840.292224,10.000000,0.000000,4283.077148,4237.948730,4196.153809,4247.948730,4202.051270,4184.102539,4184.358887,4140.256348,4127.436035,4230.000000,4466.538574,4061.923096,4276.153809,4143.589844,3020.000000,3.000000,,,,0.000000,4.000000,4.000000,4.000000,4.000000,4.000000,4.000000,4.000000,4.000000,4.000000,4.000000,4.000000,4.000000,4.000000,4.000000,100.000000,,,,,,,,,,,,,,,,,,,,,,,,,,,,,,,,,,,,,,,,,,,,,,,,,,,,,,,,,,,,,,,,,,,,,,
1605183840.300005,11.000000,0.000000,4304.615234,4256.666504,4208.077148,4271.153809,4223.846191,4199.615234,4195.256348,4145.128418,4128.589844,4246.794922,4506.025879,4064.743652,4280.641113,4151.538574,2277.000000,3.000000,,,,0.000000,4.000000,4.000000,4.000000,4.000000,4.000000,4.000000,4.000000,4.000000,4.000000,4.000000,4.000000,4.000000,4.000000,4.000000,100.000000,,,,,,,,,,,,,,,,,,,,,,,,,,,,,,,,,,,,,,,,,,,,,,,,,,,,,,,,,,,,,,,,,,,,,,
1605183840.307886,12.000000,0.000000,4319.487305,4274.487305,4209.615234,4283.333496,4234.615234,4203.077148,4199.871582,4148.717773,4124.615234,4226.794922,4543.589844,4068.846191,4293.461426,4156.282227,5310.000000,3.000000,,,,0.000000,4.000000,4.000000,4.000000,4.000000,4.000000,4.000000,4.000000,4.000000,4.000000,4.000000,4.000000,4.000000,4.000000,4.000000,100.000000,,,,,,,,,,,,,,,,,,,,,,,,,,,,,,,,,,,,,,,,,,,,,,,,,,,,,,,,,,,,,,,,,,,,,,
1605183840.315667,13.000000,0.000000,4323.461426,4273.589844,4206.410156,4274.743652,4228.205078,4203.461426,4203.461426,4151.282227,4122.563965,4209.615234,4542.692383,4068.589844,4289.871582,4155.769043,1680.000000,3.000000,,,,0.000000,4.000000,4.000000,4.000000,4.000000,4.000000,4.000000,4.000000,4.000000,4.000000,4.000000,4.000000,4.000000,4.000000,4.000000,100.000000,,,,,,,,,,,,,,,,,,,,,,,,,,,,,,,,,,,,,,,,,,,,,,,,,,,,,,,,,,,,,,,,,,,,,,
1605183840.323549,14.000000,0.000000,4323.717773,4266.666504,4208.461426,4271.538574,4225.512695,4205.384766,4213.461426,4156.794922,4127.051270,4192.563965,4535.769043,4068.333252,4278.205078,4155.384766,3020.000000,3.000000,,,,0.000000,4.000000,4.000000,4.000000,4.000000,4.000000,4.000000,4.000000,4.000000,4.000000,4.000000,4.000000,4.000000,4.000000,4.000000,100.000000,,,,,,,,,,,,,,,,,,,,,,,,,,,,,,,,,,,,,,,,,,,,,,,,,,,,,,,,,,,,,,,,,,,,,,
1605183840.331330,15.000000,0.000000,4332.051270,4281.025879,4214.871582,4286.282227,4230.384766,4214.358887,4226.282227,4164.230957,4131.153809,4194.358887,4557.307617,4071.410156,4285.128418,4164.743652,2277.000000,3.000000,,,,0.000000,4.000000,4.000000,4.000000,4.000000,4.000000,4.000000,4.000000,4.000000,4.000000,4.000000,4.000000,4.000000,4.000000,4.000000,100.000000,,,,,,,,,,,,,,,,,,,,,,,,,,,,,,,,,,,,,,,,,,,,,,,,,,,,,,,,,,,,,,,,,,,,,,
1605183840.339211,16.000000,0.000000,4337.307617,4295.641113,4217.179688,4291.922852,4235.128418,4232.179688,4233.846191,4165.512695,4131.666504,4248.333496,4577.692383,4073.076904,4289.871582,4171.282227,0.000000,3.000000,,,,0.000000,4.000000,4.000000,4.000000,4.000000,4.000000,4.000000,4.000000,4.000000,4.000000,4.000000,4.000000,4.000000,4.000000,4.000000,100.000000,,,,,,,,,,,,,,,,,,,,,,,,,,,,,,,,,,,,,,,,,,,,,,,,,,,,,,,,,,,,,,,,,,,,,,
1605183840.346992,17.000000,0.000000,4343.974121,4301.410156,4225.512695,4291.922852,4267.307617,4253.461426,4245.641113,4169.358887,4141.538574,4305.641113,4602.820313,4076.281982,4294.358887,4172.563965,0.000000,3.000000,,,,0.000000,4.000000,4.000000,4.000000,4.000000,4.000000,4.000000,4.000000,4.000000,4.000000,4.000000,4.000000,4.000000,4.000000,4.000000,100.000000,,,,,,,,,,,,,,,,,,,,,,,,,,,,,,,,,,,,,,,,,,,,,,,,,,,,,,,,,,,,,,,,,,,,,,
1605183840.354873,18.000000,0.000000,4351.922852,4313.974121,4233.974121,4301.794922,4301.025879,4262.307617,4258.717773,4179.358887,4147.436035,4308.846191,4648.846191,4078.718018,4309.230957,4176.410156,0.000000,3.000000,,,,0.000000,4.000000,4.000000,4.000000,4.000000,4.000000,4.000000,4.000000,4.000000,4.000000,4.000000,4.000000,4.000000,4.000000,4.000000,100.000000,,,,,,,,,,,,,,,,,,,,,,,,,,,,,,,,,,,,,,,,,,,,,,,,,,,,,,,,,,,,,,,,,,,,,,
1605183840.362655,19.000000,0.000000,4355.256348,4334.230957,4237.692383,4323.589844,4297.692383,4270.384766,4268.717773,4187.563965,4146.538574,4290.897461,4686.153809,4081.923096,4323.205078,4182.820313,0.000000,3.000000,,,,0.000000,4.000000,4.000000,4.000000,4.000000,4.000000,4.000000,4.000000,4.000000,4.000000,4.000000,4.000000,4.000000,4.000000,4.000000,100.000000,,,,,,,,,,,,,,,,,,,,,,,,,,,,,,,,,,,,,,,,,,,,,,,,,,,,,,,,,,,,,,,,,,,,,,
1605183840.370536,20.000000,0.000000,4357.179688,4344.615234,4242.436035,4343.205078,4296.538574,4285.897461,4278.077148,4190.769043,4151.794922,4285.769043,4715.512695,4082.692383,4334.102539,4187.692383,0.000000,3.000000,,,,0.000000,4.000000,4.000000,4.000000,4.000000,4.000000,4.000000,4.000000,4.000000,4.000000,4.000000,4.000000,4.000000,4.000000,4.000000,100.000000,,,,,,,,,,,,,,,,,,,,,,,,,,,,,,,,,,,,,,,,,,,,,,,,,,,,,,,,,,,,,,,,,,,,,,
1605183840.378317,21.000000,0.000000,4355.897461,4340.512695,4248.461426,4334.487305,4315.897461,4290.128418,4279.487305,4188.461426,4169.230957,4293.205078,4733.461426,4082.692383,4341.153809,4189.743652,0.000000,3.000000,,,,0.000000,4.000000,4.000000,4.000000,4.000000,4.000000,4.000000,4.000000,4.000000,4.000000,4.000000,4.000000,4.000000,4.000000,4.000000,100.000000,,,,,,,,,,,,,,,,,,,,,,,,,,,,,,,,,,,,,,,,,,,,,,,,,,,,,,,,,,,,,,,,,,,,,,
1605183840.386198,22.000000,0.000000,4352.692383,4339.358887,4255.384766,4319.743652,4324.102539,4288.333496,4277.563965,4190.256348,4189.230957,4330.256348,4748.333496,4084.871826,4345.256348,4188.333496,0.000000,3.000000,,,,0.000000,4.000000,4.000000,4.000000,4.000000,4.000000,4.000000,4.000000,4.000000,4.000000,4.000000,4.000000,4.000000,4.000000,4.000000,100.000000,,,,,,,,,,,,,,,,,,,,,,,,,,,,,,,,,,,,,,,,,,,,,,,,,,,,,,,,,,,,,,,,,,,,,,
1605183840.393980,23.000000,0.000000,4340.384766,4333.717773,4247.692383,4324.743652,4313.461426,4291.666504,4281.153809,4195.641113,4181.794922,4354.230957,4748.717773,4085.384521,4341.794922,4182.307617,0.000000,3.000000,,,,0.000000,4.000000,4.000000,4.000000,4.000000,4.000000,4.000000,4.000000,4.000000,4.000000,4.000000,4.000000,4.000000,4.000000,4.000000,100.000000,,,,,,,,,,,,,,,,,,,,,,,,,,,,,,,,,,,,,,,,,,,,,,,,,,,,,,,,,,,,,,,,,,,,,,
1605183840.401861,24.000000,0.000000,4335.128418,4333.461426,4240.897461,4334.487305,4325.000000,4301.794922,4290.641113,4198.333496,4149.743652,4304.615234,4753.589844,4085.384521,4344.358887,4183.461426,0.000000,3.000000,,,,0.000000,4.000000,4.000000,4.000000,4.000000,4.000000,4.000000,4.000000,4.000000,4.000000,4.000000,4.000000,4.000000,4.000000,4.000000,100.000000,,,,,,,,,,,,,,,,,,,,,,,,,,,,,,,,,,,,,,,,,,,,,,,,,,,,,,,,,,,,,,,,,,,,,,
1605183840.409642,25.000000,0.000000,4330.128418,4335.384766,4246.922852,4324.230957,4330.897461,4300.512695,4290.256348,4199.102539,4128.717773,4270.641113,4749.615234,4088.589844,4343.717773,4187.820313,0.000000,3.000000,,,,0.000000,4.000000,4.000000,4.000000,4.000000,4.000000,4.000000,4.000000,4.000000,4.000000,4.000000,4.000000,4.000000,4.000000,4.000000,100.000000,2.604334,3.161850,0.963469,0.408881,0.399330,2.554361,1.756270,0.607123,0.520495,0.238625,1.611465,1.459889,0.436686,0.339977,0.274853,5.845793,2.555626,1.552374,1.102020,1.217167,3.351042,3.714286,0.964596,0.897583,0.525494,2.736469,1.451019,0.298127,0.332347,0.167778,2.974043,1.329130,0.234933,0.310138,0.144414,1.431825,0.892857,0.330921,0.129087,0.105698,0.144019,0.241644,0.101790,0.093167,0.118380,6.695940,3.623439,2.599846,7.296999,5.259974,40.156986,20.014168,4.875809,2.455784,1.580496,0.566936,0.292453,0.108247,0.049019,0.070115,6.661052,3.093143,0.869847,0.628563,0.592234,0.796716,1.304303,0.420384,0.114501,0.215299
1605183840.417523,26.000000,0.000000,4324.615234,4336.282227,4257.820313,4333.589844,4322.692383,4301.153809,4296.794922,4209.230957,4143.205078,4328.717773,4755.128418,4094.230713,4340.641113,4191.922852,0.000000,3.000000,,,,0.000000,4.000000,4.000000,4.000000,4.000000,4.000000,4.000000,4.000000,4.000000,4.000000,4.000000,4.000000,4.000000,4.000000,4.000000,100.000000,,,,,,,,,,,,,,,,,,,,,,,,,,,,,,,,,,,,,,,,,,,,,,,,,,,,,,,,,,,,,,,,,,,,,,
1605183840.425304,27.000000,0.000000,4321.410156,4331.922852,4262.179688,4354.230957,4327.051270,4310.256348,4312.051270,4216.922852,4167.436035,4363.717773,4768.589844,4094.615479,4339.871582,4191.282227,0.000000,3.000000,,,,0.000000,4.000000,4.000000,4.000000,4.000000,4.000000,4.000000,4.000000,4.000000,4.000000,4.000000,4.000000,4.000000,4.000000,4.000000,100.000000,,,,,,,,,,,,,,,,,,,,,,,,,,,,,,,,,,,,,,,,,,,,,,,,,,,,,,,,,,,,,,,,,,,,,,
1605183840.433185,28.000000,0.000000,4323.589844,4333.974121,4266.922852,4343.205078,4348.205078,4321.922852,4322.051270,4218.974121,4176.410156,4345.769043,4785.256348,4093.974365,4351.282227,4191.922852,0.000000,3.000000,,,,0.000000,4.000000,4.000000,4.000000,4.000000,4.000000,4.000000,4.000000,4.000000,4.000000,4.000000,4.000000,4.000000,4.000000,4.000000,100.000000,,,,,,,,,,,,,,,,,,,,,,,,,,,,,,,,,,,,,,,,,,,,,,,,,,,,,,,,,,,,,,,,,,,,,,
1605183840.440966,29.000000,0.000000,4315.769043,4330.641113,4260.128418,4306.666504,4347.307617,4313.589844,4311.282227,4216.025879,4180.256348,4327.820313,4781.666504,4092.948730,4350.000000,4190.128418,0.000000,3.000000,,,,0.000000,4.000000,4.000000,4.000000,4.000000,4.000000,4.000000,4.000000,4.000000,4.000000,4.000000,4.000000,4.000000,4.000000,4.000000,100.000000,,,,,,,,,,,,,,,,,,,,,,,,,,,,,,,,,,,,,,,,,,,,,,,,,,,,,,,,,,,,,,,,,,,,,,
1605183840.448847,30.000000,0.000000,4317.436035,4337.307617,4259.743652,4320.384766,4337.948730,4311.922852,4310.897461,4219.871582,4199.487305,4335.384766,4783.717773,4098.846191,4345.769043,4196.794922,0.000000,3.000000,,,,0.000000,4.000000,4.000000,4.000000,4.000000,4.000000,4.000000,4.000000,4.000000,4.000000,4.000000,4.000000,4.000000,4.000000,4.000000,100.000000,,,,,,,,,,,,,,,,,,,,,,,,,,,,,,,,,,,,,,,,,,,,,,,,,,,,,,,,,,,,,,,,,,,,,,
1605183840.456628,31.000000,0.000000,4337.307617,4358.846191,4276.282227,4376.666504,4347.436035,4328.333496,4324.743652,4225.384766,4203.077148,4352.563965,4822.563965,4106.538574,4363.461426,4209.871582,0.000000,3.000000,,,,0.000000,4.000000,4.000000,4.000000,4.000000,4.000000,4.000000,4.000000,4.000000,4.000000,4.000000,4.000000,4.000000,4.000000,4.000000,100.000000,,,,,,,,,,,,,,,,,,,,,,,,,,,,,,,,,,,,,,,,,,,,,,,,,,,,,,,,,,,,,,,,,,,,,,
1605183840.464509,32.000000,0.000000,4348.589844,4369.487305,4287.820313,4393.333496,4367.436035,4342.051270,4331.282227,4225.128418,4186.666504,4377.051270,4861.153809,4105.512695,4380.384766,4213.717773,0.000000,3.000000,,,,0.000000,4.000000,4.000000,4.000000,4.000000,4.000000,4.000000,4.000000,4.000000,4.000000,4.000000,4.000000,4.000000,4.000000,4.000000,100.000000,,,,,,,,,,,,,,,,,,,,,,,,,,,,,,,,,,,,,,,,,,,,,,,,,,,,,,,,,,,,,,,,,,,,,,
1605183840.472290,33.000000,0.000000,4338.205078,4360.769043,4283.589844,4362.820313,4368.589844,4339.871582,4328.333496,4221.025879,4178.333496,4363.974121,4846.153809,4099.615234,4364.743652,4202.948730,0.000000,3.000000,,,,0.000000,4.000000,4.000000,4.000000,4.000000,4.000000,4.000000,4.000000,4.000000,4.000000,4.000000,4.000000,4.000000,4.000000,4.000000,100.000000,,,,,,,,,,,,,,,,,,,,,,,,,,,,,,,,,,,,,,,,,,,,,,,,,,,,,,,,,,,,,,,,,,,,,,
1605183840.480171,34.000000,0.000000,4342.820313,4372.692383,4287.436035,4364.230957,4375.128418,4350.000000,4342.051270,4231.025879,4186.153809,4359.743652,4843.205078,4108.846191,4362.820313,4207.307617,0.000000,3.000000,,,,0.000000,4.000000,4.000000,4.000000,4.000000,4.000000,4.000000,4.000000,4.000000,4.000000,4.000000,4.000000,4.000000,4.000000,4.000000,100.000000,,,,,,,,,,,,,,,,,,,,,,,,,,,,,,,,,,,,,,,,,,,,,,,,,,,,,,,,,,,,,,,,,,,,,,
1605183840.487952,35.000000,0.000000,4355.384766,4389.487305,4292.820313,4381.410156,4386.922852,4363.077148,4356.410156,4241.922852,4183.589844,4407.179688,4882.563965,4115.000000,4383.333496,4218.974121,0.000000,3.000000,,,,0.000000,4.000000,4.000000,4.000000,4.000000,4.000000,4.000000,4.000000,4.000000,4.000000,4.000000,4.000000,4.000000,4.000000,4.000000,100.000000,,,,,,,,,,,,,,,,,,,,,,,,,,,,,,,,,,,,,,,,,,,,,,,,,,,,,,,,,,,,,,,,,,,,,,
1605183840.495832,36.000000,0.000000,4353.333496,4386.025879,4291.282227,4375.769043,4389.743652,4358.589844,4355.897461,4241.538574,4175.897461,4401.410156,4896.538574,4110.512695,4392.563965,4218.589844,0.000000,3.000000,,,,0.000000,4.000000,4.000000,4.000000,4.000000,4.000000,4.000000,4.000000,4.000000,4.000000,4.000000,4.000000,4.000000,4.000000,4.000000,100.000000,,,,,,,,,,,,,,,,,,,,,,,,,,,,,,,,,,,,,,,,,,,,,,,,,,,,,,,,,,,,,,,,,,,,,,
1605183840.503614,37.000000,0.000000,4357.051270,4389.358887,4293.717773,4385.641113,4387.820313,4352.179688,4356.025879,4243.974121,4172.307617,4352.820313,4895.000000,4112.051270,4393.205078,4219.230957,0.000000,3.000000,,,,0.000000,4.000000,4.000000,4.000000,4.000000,4.000000,4.000000,4.000000,4.000000,4.000000,4.000000,4.000000,4.000000,4.000000,4.000000,100.000000,,,,,,,,,,,,,,,,,,,,,,,,,,,,,,,,,,,,,,,,,,,,,,,,,,,,,,,,,,,,,,,,,,,,,,
1605183840.511494,38.000000,0.000000,4373.846191,4401.794922,4299.615234,4407.563965,4382.179688,4354.615234,4361.666504,4252.563965,4177.179688,4367.820313,4905.256348,4117.051270,4392.948730,4225.641113,0.000000,3.000000,,,,0.000000,4.000000,4.000000,4.000000,4.000000,4.000000,4.000000,4.000000,4.000000,4.000000,4.000000,4.000000,4.000000,4.000000,4.000000,100.000000,,,,,,,,,,,,,,,,,,,,,,,,,,,,,,,,,,,,,,,,,,,,,,,,,,,,,,,,,,,,,,,,,,,,,,
1605183840.519275,39.000000,0.000000,4386.153809,4405.641113,4305.128418,4404.230957,4387.179688,4363.846191,4368.205078,4257.563965,4183.974121,4417.307617,4918.974121,4115.512695,4393.589844,4229.358887,0.000000,3.000000,,,,0.000000,4.000000,4.000000,4.000000,4.000000,4.000000,4.000000,4.000000,4.000000,4.000000,4.000000,4.000000,4.000000,4.000000,4.000000,100.000000,,,,,,,,,,,,,,,,,,,,,,,,,,,,,,,,,,,,,,,,,,,,,,,,,,,,,,,,,,,,,,,,,,,,,,
1605183840.527057,40.000000,0.000000,4396.410156,4407.563965,4310.384766,4406.410156,4407.051270,4376.153809,4375.769043,4259.743652,4186.410156,4410.256348,4932.179688,4116.922852,4398.717773,4235.897461,0.000000,3.000000,,,,0.000000,4.000000,4.000000,4.000000,4.000000,4.000000,4.000000,4.000000,4.000000,4.000000,4.000000,4.000000,4.000000,4.000000,4.000000,100.000000,,,,,,,,,,,,,,,,,,,,,,,,,,,,,,,,,,,,,,,,,,,,,,,,,,,,,,,,,,,,,,,,,,,,,,
1605183840.534938,41.000000,0.000000,4411.410156,4414.871582,4315.641113,4416.794922,4418.974121,4390.256348,4386.922852,4263.717773,4189.358887,4396.410156,4962.051270,4121.025879,4411.025879,4243.205078,0.000000,3.000000,,,,0.000000,4.000000,4.000000,4.000000,4.000000,4.000000,4.000000,4.000000,4.000000,4.000000,4.000000,4.000000,4.000000,4.000000,4.000000,100.000000,2.814285,2.487521,1.005635,0.352599,0.359312,3.148978,1.275996,0.637734,0.465191,0.242053,1.775859,0.962220,0.521431,0.283211,0.248368,7.799206,2.237690,1.349808,0.856584,1.130548,3.780217,2.576885,0.890132,0.817463,0.525857,3.381823,1.010128,0.247627,0.308720,0.170119,3.927979,1.098100,0.184963,0.296230,0.141970,1.860162,0.746861,0.250898,0.107250,0.104274,0.174628,0.256223,0.108024,0.088991,0.110352,7.892514,2.777990,2.291769,8.342185,5.001338,48.164719,15.411212,4.968867,2.151009,1.581575,0.661719,0.248421,0.120822,0.040485,0.074025,7.566910,2.527431,1.002925,0.557576,0.596745,0.826909,1.184141,0.490998,0.098965,0.211081
1605183840.542719,42.000000,0.000000,4414.487305,4408.461426,4313.974121,4403.589844,4404.102539,4391.410156,4389.487305,4263.589844,4189.230957,4396.538574,4972.563965,4122.051270,4412.948730,4240.384766,0.000000,3.000000,,,,0.000000,4.000000,4.000000,4.000000,4.000000,4.000000,4.000000,4.000000,4.000000,4.000000,4.000000,4.000000,4.000000,4.000000,4.000000,100.000000,,,,,,,,,,,,,,,,,,,,,,,,,,,,,,,,,,,,,,,,,,,,,,,,,,,,,,,,,,,,,,,,,,,,,,
1605183840.550600,43.000000,0.000000,4432.436035,4420.000000,4325.641113,4414.743652,4413.205078,4395.256348,4395.256348,4266.538574,4191.025879,4402.820313,4990.000000,4130.512695,4424.615234,4249.102539,0.000000,3.000000,,,,0.000000,4.000000,4.000000,4.000000,4.000000,4.000000,4.000000,4.000000,4.000000,4.000000,4.000000,4.000000,4.000000,4.000000,4.000000,100.000000,,,,,,,,,,,,,,,,,,,,,,,,,,,,,,,,,,,,,,,,,,,,,,,,,,,,,,,,,,,,,,,,,,,,,,
1605183840.558381,44.000000,0.000000,4452.436035,4445.512695,4338.461426,4441.410156,4436.538574,4399.743652,4397.692383,4265.897461,4191.538574,4428.974121,5013.077148,4133.333496,4433.077148,4259.102539,0.000000,3.000000,,,,0.000000,4.000000,4.000000,4.000000,4.000000,4.000000,4.000000,4.000000,4.000000,4.000000,4.000000,4.000000,4.000000,4.000000,4.000000,100.000000,,,,,,,,,,,,,,,,,,,,,,,,,,,,,,,,,,,,,,,,,,,,,,,,,,,,,,,,,,,,,,,,,,,,,,
1605183840.566163,45.000000,0.000000,4450.897461,4453.205078,4335.897461,4433.846191,4443.333496,4401.025879,4396.794922,4266.666504,4190.128418,4428.589844,5023.717773,4130.641113,4431.025879,4257.563965,0.000000,3.000000,,,,0.000000,4.000000,4.000000,4.000000,4.000000,4.000000,4.000000,4.000000,4.000000,4.000000,4.000000,4.000000,4.000000,4.000000,4.000000,100.000000,,,,,,,,,,,,,,,,,,,,,,,,,,,,,,,,,,,,,,,,,,,,,,,,,,,,,,,,,,,,,,,,,,,,,,
1605183840.574044,46.000000,0.000000,4437.563965,4437.692383,4333.333496,4400.000000,4434.358887,4396.282227,4391.538574,4268.333496,4190.512695,4396.538574,5020.128418,4131.922852,4435.641113,4255.000000,0.000000,3.000000,,,,0.000000,4.000000,4.000000,4.000000,4.000000,4.000000,4.000000,4.000000,4.000000,4.000000,4.000000,4.000000,4.000000,4.000000,4.000000,100.000000,,,,,,,,,,,,,,,,,,,,,,,,,,,,,,,,,,,,,,,,,,,,,,,,,,,,,,,,,,,,,,,,,,,,,,
1605183840.581826,47.000000,0.000000,4436.153809,4436.538574,4346.282227,4404.358887,4436.794922,4401.666504,4395.512695,4272.307617,4195.641113,4430.256348,5031.282227,4135.384766,4452.436035,4259.358887,0.000000,3.000000,,,,0.000000,4.000000,4.000000,4.000000,4.000000,4.000000,4.000000,4.000000,4.000000,4.000000,4.000000,4.000000,4.000000,4.000000,4.000000,100.000000,,,,,,,,,,,,,,,,,,,,,,,,,,,,,,,,,,,,,,,,,,,,,,,,,,,,,,,,,,,,,,,,,,,,,,
1605183840.589707,48.000000,0.000000,4427.436035,4441.666504,4340.128418,4439.230957,4434.871582,4402.179688,4399.358887,4275.641113,4191.922852,4471.025879,5035.512695,4131.794922,4448.717773,4255.000000,0.000000,3.000000,,,,0.000000,4.000000,4.000000,4.000000,4.000000,4.000000,4.000000,4.000000,4.000000,4.000000,4.000000,4.000000,4.000000,4.000000,4.000000,100.000000,,,,,,,,,,,,,,,,,,,,,,,,,,,,,,,,,,,,,,,,,,,,,,,,,,,,,,,,,,,,,,,,,,,,,,
1605183840.597488,49.000000,0.000000,4413.205078,4436.538574,4322.692383,4450.384766,4427.179688,4398.717773,4403.717773,4283.846191,4187.307617,4431.025879,5022.307617,4132.692383,4435.897461,4250.384766,0.000000,3.000000,,,,0.000000,4.000000,4.000000,4.000000,4.000000,4.000000,4.000000,4.000000,4.000000,4.000000,4.000000,4.000000,4.000000,4.000000,4.000000,100.000000,,,,,,,,,,,,,,,,,,,,,,,,,,,,,,,,,,,,,,,,,,,,,,,,,,,,,,,,,,,,,,,,,,,,,,
1605183840.605370,50.000000,0.000000,4406.025879,4427.692383,4324.615234,4424.358887,4431.025879,4404.230957,4410.769043,4290.384766,4191.538574,4414.358887,5009.102539,4136.153809,4429.230957,4248.974121,0.000000,3.000000,,,,0.000000,4.000000,4.000000,4.000000,4.000000,4.000000,4.000000,4.000000,4.000000,4.000000,4.000000,4.000000,4.000000,4.000000,4.000000,100.000000,,,,,,,,,,,,,,,,,,,,,,,,,,,,,,,,,,,,,,,,,,,,,,,,,,,,,,,,,,,,,,,,,,,,,,
1605183840.613151,51.000000,0.000000,4412.692383,4439.487305,4341.922852,4420.897461,4457.179688,4423.461426,4427.179688,4298.589844,4205.256348,4481.153809,5024.871582,4138.974121,4433.846191,4252.563965,0.000000,3.000000,,,,0.000000,4.000000,4.000000,4.000000,4.000000,4.000000,4.000000,4.000000,4.000000,4.000000,4.000000,4.000000,4.000000,4.000000,4.000000,100.000000,,,,,,,,,,,,,,,,,,,,,,,,,,,,,,,,,,,,,,,,,,,,,,,,,,,,,,,,,,,,,,,,,,,,,,
1605183840.621032,52.000000,0.000000,4413.077148,4450.897461,4341.666504,4440.641113,4466.538574,4429.743652,4431.922852,4302.692383,4204.743652,4489.871582,5038.589844,4137.563965,4434.487305,4251.282227,0.000000,3.000000,,,,0.000000,4.000000,4.000000,4.000000,4.000000,4.000000,4.000000,4.000000,4.000000,4.000000,4.000000,4.000000,4.000000,4.000000,4.000000,100.000000,,,,,,,,,,,,,,,,,,,,,,,,,,,,,,,,,,,,,,,,,,,,,,,,,,,,,,,,,,,,,,,,,,,,,,
1605183840.628914,53.000000,0.000000,4400.641113,4448.974121,4333.077148,4439.358887,4451.794922,4423.205078,4425.897461,4300.000000,4196.666504,4456.666504,5020.897461,4135.384766,4424.487305,4246.025879,0.000000,3.000000,,,,0.000000,4.000000,4.000000,4.000000,4.000000,4.000000,4.000000,4.000000,4.000000,4.000000,4.000000,4.000000,4.000000,4.000000,4.000000,100.000000,,,,,,,,,,,,,,,,,,,,,,,,,,,,,,,,,,,,,,,,,,,,,,,,,,,,,,,,,,,,,,,,,,,,,,
1605183840.636796,54.000000,0.000000,4392.307617,4446.153809,4336.666504,4432.563965,4447.563965,4424.615234,4429.230957,4303.077148,4199.487305,4462.436035,5014.102539,4135.256348,4422.307617,4247.307617,0.000000,3.000000,,,,0.000000,4.000000,4.000000,4.000000,4.000000,4.000000,4.000000,4.000000,4.000000,4.000000,4.000000,4.000000,4.000000,4.000000,4.000000,100.000000,,,,,,,,,,,,,,,,,,,,,,,,,,,,,,,,,,,,,,,,,,,,,,,,,,,,,,,,,,,,,,,,,,,,,,
1605183840.644777,55.000000,0.000000,4390.897461,4448.589844,4341.794922,4436.282227,4458.846191,4431.282227,4435.769043,4306.538574,4203.974121,4426.922852,5018.974121,4136.794922,4433.461426,4251.153809,0.000000,3.000000,,,,0.000000,4.000000,4.000000,4.000000,4.000000,4.000000,4.000000,4.000000,4.000000,4.000000,4.000000,4.000000,4.000000,4.000000,4.000000,100.000000,,,,,,,,,,,,,,,,,,,,,,,,,,,,,,,,,,,,,,,,,,,,,,,,,,,,,,,,,,,,,,,,,,,,,,
1605183840.652659,56.000000,0.000000,4386.153809,4450.641113,4335.641113,4438.717773,4465.897461,4430.000000,4428.974121,4297.436035,4191.410156,4395.897461,5006.153809,4138.589844,4428.333496,4245.512695,0.000000,3.000000,,,,0.000000,4.000000,4.000000,4.000000,4.000000,4.000000,4.000000,4.000000,4.000000,4.000000,4.000000,4.000000,4.000000,4.000000,4.000000,100.000000,,,,,,,,,,,,,,,,,,,,,,,,,,,,,,,,,,,,,,,,,,,,,,,,,,,,,,,,,,,,,,,,,,,,,,
1605183840.660641,57.000000,0.000000,4387.563965,4460.384766,4336.410156,4443.333496,4466.538574,4429.487305,4424.230957,4294.358887,4185.000000,4456.153809,4988.077148,4139.102539,4415.384766,4245.769043,0.000000,3.000000,,,,0.000000,4.000000,4.000000,4.000000,4.000000,4.000000,4.000000,4.000000,4.000000,4.000000,4.000000,4.000000,4.000000,4.000000,4.000000,100.000000,3.475508,1.959524,1.029307,0.315785,0.309239,3.702858,0.971247,0.650783,0.411148,0.242809,1.853208,0.591684,0.587591,0.238204,0.227263,9.309291,2.057321,1.143799,0.695136,1.045429,4.237218,1.796568,0.781832,0.741516,0.559022,3.878490,0.759798,0.213688,0.281998,0.183090,4.678633,0.954577,0.154496,0.275117,0.146808,2.152669,0.616573,0.191770,0.094893,0.103503,0.222931,0.296505,0.154595,0.108606,0.104380,8.662267,2.183692,2.131913,9.111197,4.619755,53.101807,11.611624,4.969201,1.867067,1.563995,0.700371,0.208998,0.124474,0.038510,0.076212,8.086174,2.034778,1.073271,0.494545,0.590604,0.853080,1.082737,0.540485,0.093632,0.198250
1605183840.668522,58.000000,0.000000,4392.820313,4465.897461,4345.769043,4446.282227,4474.102539,4438.333496,4433.205078,4304.615234,4196.153809,4499.871582,5002.948730,4137.179688,4427.436035,4256.025879,0.000000,3.000000,,,,0.000000,4.000000,4.000000,4.000000,4.000000,4.000000,4.000000,4.000000,4.000000,4.000000,4.000000,4.000000,4.000000,4.000000,4.000000,100.000000,,,,,,,,,,,,,,,,,,,,,,,,,,,,,,,,,,,,,,,,,,,,,,,,,,,,,,,,,,,,,,,,,,,,,,
1605183840.676504,59.000000,0.000000,4380.641113,4447.436035,4339.871582,4434.487305,4474.871582,4438.589844,4435.512695,4304.743652,4189.615234,4450.512695,5002.692383,4133.333496,4428.461426,4250.897461,0.000000,3.000000,,,,0.000000,4.000000,4.000000,4.000000,4.000000,4.000000,4.000000,4.000000,4.000000,4.000000,4.000000,4.000000,4.000000,4.000000,4.000000,100.000000,,,,,,,,,,,,,,,,,,,,,,,,,,,,,,,,,,,,,,,,,,,,,,,,,,,,,,,,,,,,,,,,,,,,,,
1605183840.684385,60.000000,0.000000,4375.512695,4444.230957,4334.230957,4441.666504,4467.436035,4436.153809,4436.666504,4302.179688,4157.563965,4422.563965,4981.410156,4134.743652,4411.922852,4245.384766,0.000000,3.000000,,,,0.000000,4.000000,4.000000,4.000000,4.000000,4.000000,4.000000,4.000000,4.000000,4.000000,4.000000,4.000000,4.000000,4.000000,4.000000,100.000000,,,,,,,,,,,,,,,,,,,,,,,,,,,,,,,,,,,,,,,,,,,,,,,,,,,,,,,,,,,,,,,,,,,,,,
1605183840.692367,61.000000,0.000000,4380.384766,4459.102539,4340.769043,4450.128418,4463.974121,4441.153809,4442.051270,4309.871582,4141.666504,4466.666504,4975.641113,4140.769043,4413.846191,4256.794922,0.000000,3.000000,,,,0.000000,4.000000,4.000000,4.000000,4.000000,4.000000,4.000000,4.000000,4.000000,4.000000,4.000000,4.000000,4.000000,4.000000,4.000000,100.000000,,,,,,,,,,,,,,,,,,,,,,,,,,,,,,,,,,,,,,,,,,,,,,,,,,,,,,,,,,,,,,,,,,,,,,
1605183840.700249,62.000000,0.000000,4381.922852,4464.871582,4350.769043,4442.820313,4474.615234,4454.615234,4451.025879,4319.743652,4155.641113,4496.282227,4999.487305,4144.743652,4425.000000,4265.641113,0.000000,3.000000,,,,0.000000,4.000000,4.000000,4.000000,4.000000,4.000000,4.000000,4.000000,4.000000,4.000000,4.000000,4.000000,4.000000,4.000000,4.000000,100.000000,,,,,,,,,,,,,,,,,,,,,,,,,,,,,,,,,,,,,,,,,,,,,,,,,,,,,,,,,,,,,,,,,,,,,,
1605183840.708230,63.000000,0.000000,4378.077148,4455.000000,4347.948730,4441.666504,4484.102539,4461.666504,4457.307617,4323.717773,4163.589844,4449.358887,5004.615234,4143.461426,4420.384766,4258.461426,0.000000,3.000000,,,,0.000000,4.000000,4.000000,4.000000,4.000000,4.000000,4.000000,4.000000,4.000000,4.000000,4.000000,4.000000,4.000000,4.000000,4.000000,100.000000,,,,,,,,,,,,,,,,,,,,,,,,,,,,,,,,,,,,,,,,,,,,,,,,,,,,,,,,,,,,,,,,,,,,,,
1605183840.716112,64.000000,0.000000,4383.205078,4461.410156,4347.948730,4456.282227,4491.666504,4465.897461,4464.230957,4327.563965,4160.000000,4429.871582,5001.410156,4142.948730,4427.179688,4256.410156,2665.000000,3.000000,,,,0.000000,4.000000,4.000000,4.000000,4.000000,4.000000,4.000000,4.000000,4.000000,4.000000,4.000000,4.000000,4.000000,4.000000,4.000000,100.000000,,,,,,,,,,,,,,,,,,,,,,,,,,,,,,,,,,,,,,,,,,,,,,,,,,,,,,,,,,,,,,,,,,,,,,
1605183840.724093,65.000000,0.000000,4375.256348,4457.948730,4349.871582,4440.256348,4473.974121,4451.666504,4453.717773,4315.769043,4149.743652,4491.282227,4983.717773,4141.538574,4422.563965,4255.512695,3249.000000,3.000000,,,,0.000000,4.000000,4.000000,4.000000,4.000000,4.000000,4.000000,4.000000,4.000000,4.000000,4.000000,4.000000,4.000000,4.000000,4.000000,100.000000,,,,,,,,,,,,,,,,,,,,,,,,,,,,,,,,,,,,,,,,,,,,,,,,,,,,,,,,,,,,,,,,,,,,,,
1605183840.731975,66.000000,0.000000,4367.563965,4447.948730,4350.128418,4427.307617,4453.846191,4437.948730,4443.974121,4306.025879,4155.512695,4520.512695,4966.794922,4143.077148,4409.487305,4258.846191,3069.000000,3.000000,,,,0.000000,4.000000,4.000000,4.000000,4.000000,4.000000,4.000000,4.000000,4.000000,4.000000,4.000000,4.000000,4.000000,4.000000,4.000000,100.000000,,,,,,,,,,,,,,,,,,,,,,,,,,,,,,,,,,,,,,,,,,,,,,,,,,,,,,,,,,,,,,,,,,,,,,
1605183840.739956,67.000000,0.000000,4378.077148,4458.974121,4350.769043,4445.128418,4459.615234,4438.589844,4445.769043,4312.307617,4175.512695,4466.282227,4971.025879,4147.307617,4415.384766,4266.025879,3082.000000,3.000000,,,,0.000000,4.000000,4.000000,4.000000,4.000000,4.000000,4.000000,4.000000,4.000000,4.000000,4.000000,4.000000,4.000000,4.000000,4.000000,100.000000,,,,,,,,,,,,,,,,,,,,,,,,,,,,,,,,,,,,,,,,,,,,,,,,,,,,,,,,,,,,,,,,,,,,,,
1605183840.747838,68.000000,0.000000,4388.717773,4473.461426,4355.384766,4457.692383,4478.077148,4448.461426,4448.461426,4317.307617,4176.025879,4447.692383,4982.692383,4150.128418,4421.794922,4270.641113,3484.000000,3.000000,,,,0.000000,4.000000,4.000000,4.000000,4.000000,4.000000,4.000000,4.000000,4.000000,4.000000,4.000000,4.000000,4.000000,4.000000,4.000000,100.000000,,,,,,,,,,,,,,,,,,,,,,,,,,,,,,,,,,,,,,,,,,,,,,,,,,,,,,,,,,,,,,,,,,,,,,
1605183840.755820,69.000000,0.000000,4376.410156,4464.230957,4348.077148,4448.589844,4474.871582,4445.641113,4440.512695,4307.051270,4155.897461,4473.846191,4966.666504,4145.769043,4409.743652,4267.307617,3300.000000,3.000000,,,,0.000000,4.000000,4.000000,4.000000,4.000000,4.000000,4.000000,4.000000,4.000000,4.000000,4.000000,4.000000,4.000000,4.000000,4.000000,100.000000,,,,,,,,,,,,,,,,,,,,,,,,,,,,,,,,,,,,,,,,,,,,,,,,,,,,,,,,,,,,,,,,,,,,,,
1605183840.763701,70.000000,0.000000,4375.769043,4468.333496,4347.179688,4461.538574,4470.641113,4447.051270,4442.692383,4309.230957,4163.717773,4479.102539,4965.256348,4148.205078,4419.102539,4270.769043,3061.000000,3.000000,,,,0.000000,4.000000,4.000000,4.000000,4.000000,4.000000,4.000000,4.000000,4.000000,4.000000,4.000000,4.000000,4.000000,4.000000,4.000000,100.000000,,,,,,,,,,,,,,,,,,,,,,,,,,,,,,,,,,,,,,,,,,,,,,,,,,,,,,,,,,,,,,,,,,,,,,
1605183840.771683,71.000000,0.000000,4391.794922,4482.948730,4358.974121,4478.205078,4475.384766,4455.128418,4449.743652,4319.102539,4178.589844,4470.128418,4986.025879,4153.461426,4434.102539,4274.871582,2149.000000,3.000000,,,,0.000000,4.000000,4.000000,4.000000,4.000000,4.000000,4.000000,4.000000,4.000000,4.000000,4.000000,4.000000,4.000000,4.000000,4.000000,100.000000,,,,,,,,,,,,,,,,,,,,,,,,,,,,,,,,,,,,,,,,,,,,,,,,,,,,,,,,,,,,,,,,,,,,,,
1605183840.779564,72.000000,0.000000,4397.307617,4478.077148,4366.410156,4467.820313,4485.256348,4459.230957,4454.743652,4321.794922,4173.333496,4464.230957,4992.307617,4156.794922,4428.846191,4276.794922,2176.000000,3.000000,,,,0.000000,4.000000,4.000000,4.000000,4.000000,4.000000,4.000000,4.000000,4.000000,4.000000,4.000000,4.000000,4.000000,4.000000,4.000000,100.000000,,,,,,,,,,,,,,,,,,,,,,,,,,,,,,,,,,,,,,,,,,,,,,,,,,,,,,,,,,,,,,,,,,,,,,
1605183840.787545,73.000000,0.000000,4385.512695,4462.820313,4358.461426,4452.563965,4487.948730,4453.205078,4451.282227,4318.717773,4167.051270,4455.256348,4978.589844,4154.230957,4416.922852,4275.000000,3251.000000,3.000000,,,,0.000000,4.000000,4.000000,4.000000,4.000000,4.000000,4.000000,4.000000,4.000000,4.000000,4.000000,4.000000,4.000000,4.000000,4.000000,100.000000,5.231308,1.661446,1.065033,0.302134,0.262565,4.001847,0.884185,0.659164,0.369519,0.241398,1.786628,0.384447,0.620178,0.212744,0.213200,9.802820,1.997469,0.992552,0.652456,0.997069,4.353078,1.457253,0.669811,0.697219,0.608181,3.947257,0.722012,0.193093,0.264338,0.202496,4.820855,0.911974,0.145252,0.249257,0.155722,2.167566,0.510750,0.157741,0.093099,0.103017,0.291041,0.408541,0.273902,0.176478,0.108244,8.395532,2.002866,2.118952,9.487781,4.233906,50.723846,9.096846,4.932718,1.640150,1.521743,0.647260,0.179126,0.119280,0.041042,0.076280,7.754629,1.705772,1.081873,0.440210,0.576404,0.884062,0.991772,0.556778,0.095052,0.178149
1605183840.795427,74.000000,0.000000,4379.358887,4463.717773,4353.846191,4454.230957,4474.615234,4446.025879,4445.641113,4316.794922,4165.641113,4462.051270,4953.846191,4152.820313,4408.333496,4268.974121,3010.000000,3.000000,,,,0.000000,4.000000,4.000000,4.000000,4.000000,4.000000,4.000000,4.000000,4.000000,4.000000,4.000000,4.000000,4.000000,4.000000,4.000000,100.000000,,,,,,,,,,,,,,,,,,,,,,,,,,,,,,,,,,,,,,,,,,,,,,,,,,,,,,,,,,,,,,,,,,,,,,
1605183840.803408,75.000000,0.000000,4387.948730,4473.846191,4363.974121,4459.743652,4475.256348,4454.871582,4454.102539,4321.538574,4166.025879,4493.974121,4954.487305,4158.461426,4410.769043,4270.128418,2263.000000,3.000000,,,,0.000000,4.000000,4.000000,4.000000,4.000000,4.000000,4.000000,4.000000,4.000000,4.000000,4.000000,4.000000,4.000000,4.000000,4.000000,100.000000,,,,,,,,,,,,,,,,,,,,,,,,,,,,,,,,,,,,,,,,,,,,,,,,,,,,,,,,,,,,,,,,,,,,,,
1605183840.811289,76.000000,0.000000,4391.922852,4473.333496,4367.436035,4460.256348,4493.333496,4465.512695,4462.436035,4325.769043,4180.000000,4505.769043,4968.846191,4160.512695,4413.077148,4274.743652,5254.000000,3.000000,,,,0.000000,4.000000,4.000000,4.000000,4.000000,4.000000,4.000000,4.000000,4.000000,4.000000,4.000000,4.000000,4.000000,4.000000,4.000000,100.000000,,,,,,,,,,,,,,,,,,,,,,,,,,,,,,,,,,,,,,,,,,,,,,,,,,,,,,,,,,,,,,,,,,,,,,
1605183840.819071,77.000000,0.000000,4390.256348,4474.487305,4362.307617,4460.641113,4491.153809,4465.000000,4459.358887,4326.025879,4195.128418,4495.256348,4973.333496,4158.205078,4411.025879,4274.743652,1655.000000,3.000000,,,,0.000000,4.000000,4.000000,4.000000,4.000000,4.000000,4.000000,4.000000,4.000000,4.000000,4.000000,4.000000,4.000000,4.000000,4.000000,100.000000,,,,,,,,,,,,,,,,,,,,,,,,,,,,,,,,,,,,,,,,,,,,,,,,,,,,,,,,,,,,,,,,,,,,,,
1605183840.826952,78.000000,0.000000,4383.333496,4473.717773,4356.025879,4448.333496,4467.563965,4456.666504,4452.179688,4322.563965,4192.692383,4469.871582,4952.307617,4156.922852,4410.769043,4268.333496,3010.000000,3.000000,,,,0.000000,4.000000,4.000000,4.000000,4.000000,4.000000,4.000000,4.000000,4.000000,4.000000,4.000000,4.000000,4.000000,4.000000,4.000000,100.000000,,,,,,,,,,,,,,,,,,,,,,,,,,,,,,,,,,,,,,,,,,,,,,,,,,,,,,,,,,,,,,,,,,,,,,
1605183840.834834,79.000000,0.000000,4381.922852,4469.230957,4366.666504,4441.153809,4465.128418,4458.461426,4454.230957,4322.692383,4186.666504,4430.512695,4936.922852,4157.820313,4407.436035,4267.563965,2263.000000,3.000000,,,,0.000000,4.000000,4.000000,4.000000,4.000000,4.000000,4.000000,4.000000,4.000000,4.000000,4.000000,4.000000,4.000000,4.000000,4.000000,100.000000,,,,,,,,,,,,,,,,,,,,,,,,,,,,,,,,,,,,,,,,,,,,,,,,,,,,,,,,,,,,,,,,,,,,,,
1605183840.842717,80.000000,0.000000,4382.948730,4466.922852,4377.179688,4447.820313,4481.666504,4462.948730,4454.487305,4320.641113,4187.179688,4429.102539,4920.512695,4157.563965,4391.410156,4271.282227,5254.000000,3.000000,,,,0.000000,4.000000,4.000000,4.000000,4.000000,4.000000,4.000000,4.000000,4.000000,4.000000,4.000000,4.000000,4.000000,4.000000,4.000000,100.000000,,,,,,,,,,,,,,,,,,,,,,,,,,,,,,,,,,,,,,,,,,,,,,,,,,,,,,,,,,,,,,,,,,,,,,
1605183840.850599,81.000000,0.000000,4390.897461,4477.563965,4372.436035,4467.948730,4500.128418,4467.692383,4461.025879,4322.692383,4202.820313,4481.922852,4929.871582,4160.384766,4398.717773,4277.436035,1655.000000,3.000000,,,,0.000000,4.000000,4.000000,4.000000,4.000000,4.000000,4.000000,4.000000,4.000000,4.000000,4.000000,4.000000,4.000000,4.000000,4.000000,100.000000,,,,,,,,,,,,,,,,,,,,,,,,,,,,,,,,,,,,,,,,,,,,,,,,,,,,,,,,,,,,,,,,,,,,,,
1605183840.858481,82.000000,0.000000,4387.948730,4474.358887,4359.102539,4476.666504,4485.384766,4460.641113,4458.974121,4325.256348,4197.051270,4496.410156,4943.333496,4161.410156,4409.102539,4277.179688,3010.000000,3.000000,,,,0.000000,4.000000,4.000000,4.000000,4.000000,4.000000,4.000000,4.000000,4.000000,4.000000,4.000000,4.000000,4.000000,4.000000,4.000000,100.000000,,,,,,,,,,,,,,,,,,,,,,,,,,,,,,,,,,,,,,,,,,,,,,,,,,,,,,,,,,,,,,,,,,,,,,
1605183840.866262,83.000000,0.000000,4386.410156,4472.820313,4363.333496,4481.538574,4473.205078,4460.128418,4456.153809,4328.077148,4163.846191,4489.487305,4943.717773,4161.794922,4406.282227,4277.179688,2263.000000,3.000000,,,,0.000000,4.000000,4.000000,4.000000,4.000000,4.000000,4.000000,4.000000,4.000000,4.000000,4.000000,4.000000,4.000000,4.000000,4.000000,100.000000,,,,,,,,,,,,,,,,,,,,,,,,,,,,,,,,,,,,,,,,,,,,,,,,,,,,,,,,,,,,,,,,,,,,,,
1605183840.874144,84.000000,0.000000,4385.384766,4474.487305,4365.128418,4466.410156,4480.512695,4460.897461,4456.666504,4324.871582,4144.615234,4468.717773,4923.205078,4159.871582,4396.153809,4272.692383,5254.000000,3.000000,,,,0.000000,4.000000,4.000000,4.000000,4.000000,4.000000,4.000000,4.000000,4.000000,4.000000,4.000000,4.000000,4.000000,4.000000,4.000000,100.000000,,,,,,,,,,,,,,,,,,,,,,,,,,,,,,,,,,,,,,,,,,,,,,,,,,,,,,,,,,,,,,,,,,,,,,
1605183840.882026,85.000000,0.000000,4381.025879,4471.794922,4356.410156,4452.179688,4479.743652,4454.871582,4457.051270,4324.487305,4157.307617,4437.436035,4895.384766,4159.358887,4389.743652,4268.205078,1655.000000,3.000000,,,,0.000000,4.000000,4.000000,4.000000,4.000000,4.000000,4.000000,4.000000,4.000000,4.000000,4.000000,4.000000,4.000000,4.000000,4.000000,100.000000,,,,,,,,,,,,,,,,,,,,,,,,,,,,,,,,,,,,,,,,,,,,,,,,,,,,,,,,,,,,,,,,,,,,,,
1605183840.889907,86.000000,0.000000,4377.563965,4469.102539,4354.230957,4456.666504,4463.846191,4448.333496,4451.538574,4328.205078,4166.666504,4446.666504,4883.717773,4161.282227,4386.922852,4270.256348,3010.000000,3.000000,,,,0.000000,4.000000,4.000000,4.000000,4.000000,4.000000,4.000000,4.000000,4.000000,4.000000,4.000000,4.000000,4.000000,4.000000,4.000000,100.000000,,,,,,,,,,,,,,,,,,,,,,,,,,,,,,,,,,,,,,,,,,,,,,,,,,,,,,,,,,,,,,,,,,,,,,
1605183840.897789,87.000000,0.000000,4386.666504,4475.897461,4363.461426,4459.358887,4472.692383,4457.307617,4452.820313,4335.256348,4171.282227,4497.179688,4902.948730,4164.615234,4399.102539,4278.333496,2263.000000,3.000000,,,,0.000000,4.000000,4.000000,4.000000,4.000000,4.000000,4.000000,4.000000,4.000000,4.000000,4.000000,4.000000,4.000000,4.000000,4.000000,100.000000,,,,,,,,,,,,,,,,,,,,,,,,,,,,,,,,,,,,,,,,,,,,,,,,,,,,,,,,,,,,,,,,,,,,,,
1605183840.905671,88.000000,0.000000,4388.077148,4475.128418,4362.563965,4450.000000,4478.974121,4457.820313,4449.871582,4333.461426,4176.922852,4496.666504,4907.820313,4161.282227,4406.410156,4276.410156,5254.000000,3.000000,,,,0.000000,4.000000,4.000000,4.000000,4.000000,4.000000,4.000000,4.000000,4.000000,4.000000,4.000000,4.000000,4.000000,4.000000,4.000000,100.000000,,,,,,,,,,,,,,,,,,,,,,,,,,,,,,,,,,,,,,,,,,,,,,,,,,,,,,,,,,,,,,,,,,,,,,
1605183840.913553,89.000000,0.000000,4382.563965,4475.128418,4363.205078,4455.000000,4464.230957,4452.820313,4444.615234,4326.153809,4177.307617,4462.051270,4886.538574,4161.794922,4401.282227,4272.948730,1655.000000,3.000000,,,,0.000000,4.000000,4.000000,4.000000,4.000000,4.000000,4.000000,4.000000,4.000000,4.000000,4.000000,4.000000,4.000000,4.000000,4.000000,100.000000,8.743958,1.611885,1.121508,0.308277,0.229563,4.246116,0.988001,0.669299,0.348660,0.242758,1.690538,0.323237,0.617852,0.207676,0.205602,9.400871,1.971739,0.917908,0.743511,1.010326,4.301181,1.459651,0.581954,0.698694,0.655452,3.907422,0.845828,0.195148,0.264905,0.222883,4.613130,0.953922,0.164069,0.222632,0.164900,1.976162,0.439790,0.154801,0.099510,0.102323,0.427142,0.637455,0.485898,0.305418,0.129835,7.619277,2.239921,2.241408,9.516036,3.992858,44.666641,7.836329,4.931733,1.486093,1.456445,0.548843,0.158219,0.109234,0.045952,0.074334,6.913489,1.576627,1.047521,0.391715,0.556496,1.049139,0.899588,0.541238,0.099797,0.155279
1605183840.921435,90.000000,0.000000,4387.307617,4483.461426,4367.307617,4470.000000,4459.230957,4455.000000,4443.974121,4323.077148,4175.256348,4459.358887,4883.589844,4163.205078,4398.846191,4276.538574,3010.000000,3.000000,,,,0.000000,4.000000,4.000000,4.000000,4.000000,4.000000,4.000000,4.000000,4.000000,4.000000,4.000000,4.000000,4.000000,4.000000,4.000000,100.000000,,,,,,,,,,,,,,,,,,,,,,,,,,,,,,,,,,,,,,,,,,,,,,,,,,,,,,,,,,,,,,,,,,,,,,
1605183840.929317,91.000000,0.000000,4401.410156,4492.179688,4373.205078,4477.307617,4468.461426,4462.820313,4452.436035,4330.384766,4181.025879,4448.205078,4902.563965,4164.615234,4410.256348,4285.641113,2263.000000,3.000000,,,,0.000000,4.000000,4.000000,4.000000,4.000000,4.000000,4.000000,4.000000,4.000000,4.000000,4.000000,4.000000,4.000000,4.000000,4.000000,100.000000,,,,,,,,,,,,,,,,,,,,,,,,,,,,,,,,,,,,,,,,,,,,,,,,,,,,,,,,,,,,,,,,,,,,,,
1605183840.937298,92.000000,0.000000,4400.897461,4487.179688,4373.974121,4465.000000,4467.563965,4460.769043,4455.897461,4332.820313,4178.846191,4416.025879,4900.897461,4164.230957,4417.563965,4282.820313,5254.000000,3.000000,,,,0.000000,4.000000,4.000000,4.000000,4.000000,4.000000,4.000000,4.000000,4.000000,4.000000,4.000000,4.000000,4.000000,4.000000,4.000000,100.000000,,,,,,,,,,,,,,,,,,,,,,,,,,,,,,,,,,,,,,,,,,,,,,,,,,,,,,,,,,,,,,,,,,,,,,
1605183840.945280,93.000000,0.000000,4390.256348,4477.051270,4375.256348,4449.230957,4455.641113,4450.128418,4451.282227,4325.512695,4177.179688,4427.307617,4876.794922,4162.563965,4404.487305,4273.205078,1655.000000,3.000000,,,,0.000000,4.000000,4.000000,4.000000,4.000000,4.000000,4.000000,4.000000,4.000000,4.000000,4.000000,4.000000,4.000000,4.000000,4.000000,100.000000,,,,,,,,,,,,,,,,,,,,,,,,,,,,,,,,,,,,,,,,,,,,,,,,,,,,,,,,,,,,,,,,,,,,,,
1605183840.953162,94.000000,0.000000,4390.769043,4478.846191,4378.974121,4456.922852,4449.230957,4445.384766,4447.948730,4322.692383,4184.230957,4470.384766,4867.948730,4161.025879,4396.282227,4273.717773,3010.000000,3.000000,,,,0.000000,4.000000,4.000000,4.000000,4.000000,4.000000,4.000000,4.000000,4.000000,4.000000,4.000000,4.000000,4.000000,4.000000,4.000000,100.000000,,,,,,,,,,,,,,,,,,,,,,,,,,,,,,,,,,,,,,,,,,,,,,,,,,,,,,,,,,,,,,,,,,,,,,
1605183840.961143,95.000000,0.000000,4388.205078,4477.563965,4370.256348,4461.410156,4453.589844,4446.922852,4446.410156,4326.025879,4191.153809,4485.641113,4858.205078,4162.692383,4401.153809,4275.384766,2263.000000,3.000000,,,,0.000000,4.000000,4.000000,4.000000,4.000000,4.000000,4.000000,4.000000,4.000000,4.000000,4.000000,4.000000,4.000000,4.000000,4.000000,100.000000,,,,,,,,,,,,,,,,,,,,,,,,,,,,,,,,,,,,,,,,,,,,,,,,,,,,,,,,,,,,,,,,,,,,,,
1605183840.969025,96.000000,0.000000,4375.769043,4467.948730,4362.948730,4437.820313,4466.922852,4451.025879,4446.666504,4327.307617,4192.179688,4481.410156,4850.512695,4163.717773,4398.974121,4270.128418,5254.000000,3.000000,,,,0.000000,4.000000,4.000000,4.000000,4.000000,4.000000,4.000000,4.000000,4.000000,4.000000,4.000000,4.000000,4.000000,4.000000,4.000000,100.000000,,,,,,,,,,,,,,,,,,,,,,,,,,,,,,,,,,,,,,,,,,,,,,,,,,,,,,,,,,,,,,,,,,,,,,
1605183840.977006,97.000000,0.000000,4364.615234,4458.205078,4362.820313,4422.948730,4464.102539,4446.794922,4440.897461,4323.974121,4193.846191,4449.743652,4826.410156,4161.538574,4383.974121,4264.230957,1655.000000,3.000000,,,,0.000000,4.000000,4.000000,4.000000,4.000000,4.000000,4.000000,4.000000,4.000000,4.000000,4.000000,4.000000,4.000000,4.000000,4.000000,100.000000,,,,,,,,,,,,,,,,,,,,,,,,,,,,,,,,,,,,,,,,,,,,,,,,,,,,,,,,,,,,,,,,,,,,,,
1605183840.984888,98.000000,0.000000,4365.769043,4459.487305,4358.974121,4444.871582,4450.384766,4444.615234,4438.077148,4325.256348,4199.358887,4425.000000,4805.256348,4161.794922,4378.333496,4266.666504,3010.000000,3.000000,,,,0.000000,4.000000,4.000000,4.000000,4.000000,4.000000,4.000000,4.000000,4.000000,4.000000,4.000000,4.000000,4.000000,4.000000,4.000000,100.000000,,,,,,,,,,,,,,,,,,,,,,,,,,,,,,,,,,,,,,,,,,,,,,,,,,,,,,,,,,,,,,,,,,,,,,
1605183840.992870,99.000000,0.000000,4367.948730,4458.717773,4350.000000,4456.666504,4446.922852,4444.871582,4439.230957,4329.230957,4193.077148,4469.487305,4797.436035,4162.051270,4381.025879,4268.846191,2263.000000,3.000000,,,,0.000000,4.000000,4.000000,4.000000,4.000000,4.000000,4.000000,4.000000,4.000000,4.000000,4.000000,4.000000,4.000000,4.000000,4.000000,100.000000,,,,,,,,,,,,,,,,,,,,,,,,,,,,,,,,,,,,,,,,,,,,,,,,,,,,,,,,,,,,,,,,,,,,,,
1605183841.000751,100.000000,0.000000,4379.871582,4463.717773,4361.153809,4458.205078,4460.128418,4451.025879,4451.282227,4335.384766,4184.743652,4512.179688,4824.487305,4167.307617,4393.974121,4276.538574,5254.000000,3.000000,,,,0.000000,4.000000,4.000000,4.000000,4.000000,4.000000,4.000000,4.000000,4.000000,4.000000,4.000000,4.000000,4.000000,4.000000,4.000000,100.000000,,,,,,,,,,,,,,,,,,,,,,,,,,,,,,,,,,,,,,,,,,,,,,,,,,,,,,,,,,,,,,,,,,,,,,
1605183841.008733,101.000000,0.000000,4378.717773,4458.205078,4366.025879,4456.666504,4448.717773,4444.358887,4448.333496,4331.538574,4183.717773,4458.205078,4828.077148,4169.487305,4391.666504,4277.820313,1655.000000,3.000000,,,,0.000000,4.000000,4.000000,4.000000,4.000000,4.000000,4.000000,4.000000,4.000000,4.000000,4.000000,4.000000,4.000000,4.000000,4.000000,100.000000,,,,,,,,,,,,,,,,,,,,,,,,,,,,,,,,,,,,,,,,,,,,,,,,,,,,,,,,,,,,,,,,,,,,,,
1605183841.016614,102.000000,0.000000,4368.589844,4452.692383,4358.461426,4451.922852,4439.102539,4437.948730,4438.974121,4328.846191,4195.641113,4418.333496,4803.589844,4168.974121,4386.922852,4275.641113,3010.000000,3.000000,,,,0.000000,4.000000,4.000000,4.000000,4.000000,4.000000,4.000000,4.000000,4.000000,4.000000,4.000000,4.000000,4.000000,4.000000,4.000000,100.000000,,,,,,,,,,,,,,,,,,,,,,,,,,,,,,,,,,,,,,,,,,,,,,,,,,,,,,,,,,,,,,,,,,,,,,
1605183841.024596,103.000000,0.000000,4368.461426,4451.794922,4359.358887,4439.743652,4453.333496,4439.871582,4437.179688,4331.153809,4206.282227,4453.589844,4794.615234,4169.102539,4395.641113,4276.794922,2263.000000,3.000000,,,,0.000000,4.000000,4.000000,4.000000,4.000000,4.000000,4.000000,4.000000,4.000000,4.000000,4.000000,4.000000,4.000000,4.000000,4.000000,100.000000,,,,,,,,,,,,,,,,,,,,,,,,,,,,,,,,,,,,,,,,,,,,,,,,,,,,,,,,,,,,,,,,,,,,,,
1605183841.032478,104.000000,0.000000,4376.282227,4454.615234,4365.256348,4439.743652,4463.077148,4445.769043,4439.102539,4334.871582,4210.384766,4471.410156,4806.025879,4171.282227,4404.487305,4284.358887,5254.000000,3.000000,,,,0.000000,4.000000,4.000000,4.000000,4.000000,4.000000,4.000000,4.000000,4.000000,4.000000,4.000000,4.000000,4.000000,4.000000,4.000000,100.000000,,,,,,,,,,,,,,,,,,,,,,,,,,,,,,,,,,,,,,,,,,,,,,,,,,,,,,,,,,,,,,,,,,,,,,
1605183841.040459,105.000000,0.000000,4371.410156,4451.538574,4358.846191,4441.153809,4455.256348,4442.307617,4432.692383,4333.077148,4206.922852,4425.256348,4802.051270,4171.410156,4398.077148,4287.179688,1655.000000,3.000000,,,,0.000000,4.000000,4.000000,4.000000,4.000000,4.000000,4.000000,4.000000,4.000000,4.000000,4.000000,4.000000,4.000000,4.000000,4.000000,100.000000,14.706448,1.777169,1.196010,0.325494,0.215228,4.624179,1.208327,0.691458,0.353157,0.253790,1.587529,0.357290,0.591524,0.216626,0.204294,8.134131,1.897508,0.921738,0.950930,1.085380,3.975074,1.603222,0.546354,0.747832,0.688701,3.484236,1.025529,0.242087,0.287835,0.239364,3.808186,1.034337,0.223250,0.201263,0.172010,1.552487,0.417729,0.180401,0.110170,0.102201,0.709720,1.004447,0.773480,0.480742,0.176852,6.113719,2.788877,2.439819,9.292986,4.004999,35.593624,7.497256,5.072083,1.404727,1.379727,0.408468,0.142650,0.100237,0.051490,0.071152,5.709599,1.622013,1.004024,0.349192,0.532950,1.393168,0.805725,0.505404,0.105204,0.135981
1605183841.048341,106.000000,0.000000,4374.358887,4455.512695,4359.615234,4446.153809,4464.102539,4446.794922,4437.563965,4333.846191,4207.436035,4421.922852,4804.615234,4175.641113,4400.384766,4288.205078,3010.000000,3.000000,,,,0.000000,4.000000,4.000000,4.000000,4.000000,4.000000,4.000000,4.000000,4.000000,4.000000,4.000000,4.000000,4.000000,4.000000,4.000000,100.000000,,,,,,,,,,,,,,,,,,,,,,,,,,,,,,,,,,,,,,,,,,,,,,,,,,,,,,,,,,,,,,,,,,,,,,
1605183841.056322,107.000000,0.000000,4381.025879,4455.384766,4365.897461,4451.666504,4457.948730,4449.102539,4444.487305,4333.333496,4205.512695,4483.077148,4810.256348,4175.256348,4396.153809,4282.563965,2263.000000,3.000000,,,,0.000000,4.000000,4.000000,4.000000,4.000000,4.000000,4.000000,4.000000,4.000000,4.000000,4.000000,4.000000,4.000000,4.000000,4.000000,100.000000,,,,,,,,,,,,,,,,,,,,,,,,,,,,,,,,,,,,,,,,,,,,,,,,,,,,,,,,,,,,,,,,,,,,,,
1605183841.064204,108.000000,0.000000,4368.333496,4438.589844,4360.512695,4445.897461,4427.948730,4435.256348,4434.102539,4327.307617,4197.692383,4487.820313,4778.589844,4167.051270,4376.153809,4272.948730,5254.000000,3.000000,,,,0.000000,4.000000,4.000000,4.000000,4.000000,4.000000,4.000000,4.000000,4.000000,4.000000,4.000000,4.000000,4.000000,4.000000,4.000000,100.000000,,,,,,,,,,,,,,,,,,,,,,,,,,,,,,,,,,,,,,,,,,,,,,,,,,,,,,,,,,,,,,,,,,,,,,
1605183841.072186,109.000000,0.000000,4358.717773,4431.282227,4352.563965,4430.000000,4425.000000,4425.769043,4425.256348,4324.358887,4194.743652,4435.769043,4743.461426,4166.794922,4373.717773,4271.922852,1655.000000,3.000000,,,,0.000000,4.000000,4.000000,4.000000,4.000000,4.000000,4.000000,4.000000,4.000000,4.000000,4.000000,4.000000,4.000000,4.000000,4.000000,100.000000,,,,,,,,,,,,,,,,,,,,,,,,,,,,,,,,,,,,,,,,,,,,,,,,,,,,,,,,,,,,,,,,,,,,,,
1605183841.080067,110.000000,0.000000,4371.538574,4445.641113,4366.794922,4412.948730,4448.333496,4435.256348,4434.743652,4329.358887,4203.333496,4439.743652,4753.846191,4175.512695,4389.615234,4280.000000,3010.000000,3.000000,,,,0.000000,4.000000,4.000000,4.000000,4.000000,4.000000,4.000000,4.000000,4.000000,4.000000,4.000000,4.000000,4.000000,4.000000,4.000000,100.000000,,,,,,,,,,,,,,,,,,,,,,,,,,,,,,,,,,,,,,,,,,,,,,,,,,,,,,,,,,,,,,,,,,,,,,
1605183841.088049,111.000000,0.000000,4377.307617,4448.974121,4371.025879,4421.410156,4441.282227,4436.153809,4438.077148,4329.230957,4205.769043,4441.282227,4762.692383,4173.846191,4391.794922,4279.743652,2263.000000,3.000000,,,,0.000000,4.000000,4.000000,4.000000,4.000000,4.000000,4.000000,4.000000,4.000000,4.000000,4.000000,4.000000,4.000000,4.000000,4.000000,100.000000,,,,,,,,,,,,,,,,,,,,,,,,,,,,,,,,,,,,,,,,,,,,,,,,,,,,,,,,,,,,,,,,,,,,,,
1605183841.095930,112.000000,0.000000,4369.615234,4442.820313,4357.692383,4455.512695,4422.948730,4427.436035,4427.051270,4324.743652,4210.256348,4397.307617,4743.717773,4171.794922,4387.948730,4277.820313,5254.000000,3.000000,,,,0.000000,4.000000,4.000000,4.000000,4.000000,4.000000,4.000000,4.000000,4.000000,4.000000,4.000000,4.000000,4.000000,4.000000,4.000000,100.000000,,,,,,,,,,,,,,,,,,,,,,,,,,,,,,,,,,,,,,,,,,,,,,,,,,,,,,,,,,,,,,,,,,,,,,
1605183841.103911,113.000000,0.000000,4369.743652,4446.538574,4358.461426,4462.307617,4437.820313,4432.563965,4424.743652,4328.205078,4226.666504,4423.974121,4748.077148,4176.282227,4396.666504,4281.538574,1655.000000,3.000000,,,,0.000000,4.000000,4.000000,4.000000,4.000000,4.000000,4.000000,4.000000,4.000000,4.000000,4.000000,4.000000,4.000000,4.000000,4.000000,100.000000,,,,,,,,,,,,,,,,,,,,,,,,,,,,,,,,,,,,,,,,,,,,,,,,,,,,,,,,,,,,,,,,,,,,,,
1605183841.111793,114.000000,0.000000,4378.717773,4453.205078,4366.025879,4443.589844,4456.153809,4443.333496,4435.641113,4338.974121,4246.282227,4480.641113,4772.692383,4180.000000,4407.820313,4288.589844,3010.000000,3.000000,,,,0.000000,4.000000,4.000000,4.000000,4.000000,4.000000,4.000000,4.000000,4.000000,4.000000,4.000000,4.000000,4.000000,4.000000,4.000000,100.000000,,,,,,,,,,,,,,,,,,,,,,,,,,,,,,,,,,,,,,,,,,,,,,,,,,,,,,,,,,,,,,,,,,,,,,
1605183841.119574,115.000000,0.000000,4394.358887,4466.153809,4367.436035,4456.538574,4463.589844,4453.205078,4448.846191,4347.051270,4255.897461,4479.102539,4810.256348,4183.077148,4419.871582,4298.846191,2263.000000,3.000000,,,,0.000000,4.000000,4.000000,4.000000,4.000000,4.000000,4.000000,4.000000,4.000000,4.000000,4.000000,4.000000,4.000000,4.000000,4.000000,100.000000,,,,,,,,,,,,,,,,,,,,,,,,,,,,,,,,,,,,,,,,,,,,,,,,,,,,,,,,,,,,,,,,,,,,,,
1605183841.127456,116.000000,0.000000,4394.230957,4466.153809,4364.743652,4465.769043,4458.205078,4446.153809,4440.897461,4339.871582,4247.436035,4460.512695,4809.615234,4183.846191,4419.487305,4297.051270,5254.000000,3.000000,,,,0.000000,4.000000,4.000000,4.000000,4.000000,4.000000,4.000000,4.000000,4.000000,4.000000,4.000000,4.000000,4.000000,4.000000,4.000000,100.000000,,,,,,,,,,,,,,,,,,,,,,,,,,,,,,,,,,,,,,,,,,,,,,,,,,,,,,,,,,,,,,,,,,,,,,
1605183841.135237,117.000000,0.000000,4385.897461,4456.282227,4366.538574,4445.641113,4456.282227,4436.538574,4431.922852,4335.256348,4235.897461,4448.846191,4789.615234,4181.282227,4418.077148,4289.871582,1655.000000,3.000000,,,,0.000000,4.000000,4.000000,4.000000,4.000000,4.000000,4.000000,4.000000,4.000000,4.000000,4.000000,4.000000,4.000000,4.000000,4.000000,100.000000,,,,,,,,,,,,,,,,,,,,,,,,,,,,,,,,,,,,,,,,,,,,,,,,,,,,,,,,,,,,,,,,,,,,,,
1605183841.143118,118.000000,0.000000,4383.589844,4457.563965,4366.282227,4442.692383,4446.153809,4436.538574,4436.282227,4340.512695,4232.436035,4425.128418,4784.102539,4177.307617,4416.282227,4288.846191,3010.000000,3.000000,,,,0.000000,4.000000,4.000000,4.000000,4.000000,4.000000,4.000000,4.000000,4.000000,4.000000,4.000000,4.000000,4.000000,4.000000,4.000000,100.000000,,,,,,,,,,,,,,,,,,,,,,,,,,,,,,,,,,,,,,,,,,,,,,,,,,,,,,,,,,,,,,,,,,,,,,
1605183841.150900,119.000000,0.000000,4392.307617,4469.102539,4373.333496,4462.692383,4444.871582,4450.512695,4449.487305,4349.102539,4239.230957,4446.538574,4796.538574,4178.077148,4418.461426,4294.102539,2263.000000,3.000000,,,,0.000000,4.000000,4.000000,4.000000,4.000000,4.000000,4.000000,4.000000,4.000000,4.000000,4.000000,4.000000,4.000000,4.000000,4.000000,100.000000,,,,,,,,,,,,,,,,,,,,,,,,,,,,,,,,,,,,,,,,,,,,,,,,,,,,,,,,,,,,,,,,,,,,,,
1605183841.158781,120.000000,0.000000,4387.051270,4459.871582,4371.666504,4450.000000,4449.487305,4452.948730,4448.974121,4347.436035,4231.794922,4464.230957,4783.333496,4176.282227,4417.436035,4288.589844,5254.000000,3.000000,,,,0.000000,4.000000,4.000000,4.000000,4.000000,4.000000,4.000000,4.000000,4.000000,4.000000,4.000000,4.000000,4.000000,4.000000,4.000000,100.000000,,,,,,,,,,,,,,,,,,,,,,,,,,,,,,,,,,,,,,,,,,,,,,,,,,,,,,,,,,,,,,,,,,,,,,
1605183841.166563,121.000000,0.000000,4384.358887,4460.512695,4367.051270,4442.563965,4455.128418,4452.948730,4448.589844,4346.153809,4222.563965,4440.769043,4777.692383,4179.230957,4424.743652,4286.666504,1655.000000,3.000000,,,,0.000000,4.000000,4.000000,4.000000,4.000000,4.000000,4.000000,4.000000,4.000000,4.000000,4.000000,4.000000,4.000000,4.000000,4.000000,100.000000,20.695459,2.041688,1.235402,0.341681,0.219793,4.707855,1.442096,0.703311,0.376419,0.279086,1.487865,0.429461,0.547918,0.229230,0.211311,6.499281,1.740649,0.978835,1.220792,1.197596,3.526544,1.712312,0.553722,0.827702,0.705714,3.237673,1.169698,0.345887,0.328005,0.249287,3.107328,1.114648,0.323066,0.188274,0.176795,1.173692,0.457022,0.218688,0.119648,0.104490,1.226221,1.489439,1.087681,0.664708,0.254030,4.983523,3.467804,2.605793,8.942287,4.279994,27.500393,7.444644,5.171176,1.378055,1.311504,0.311380,0.127227,0.093144,0.056051,0.067841,4.686907,1.736941,0.949498,0.318927,0.510401,1.860653,0.707519,0.453706,0.109160,0.125478
1605183841.174544,122.000000,0.000000,4388.077148,4466.282227,4371.922852,4450.128418,4449.743652,4448.974121,4447.948730,4343.589844,4224.102539,4447.692383,4783.974121,4185.256348,4426.538574,4290.897461,3010.000000,3.000000,,,,0.000000,4.000000,4.000000,4.000000,4.000000,4.000000,4.000000,4.000000,4.000000,4.000000,4.000000,4.000000,4.000000,4.000000,4.000000,100.000000,,,,,,,,,,,,,,,,,,,,,,,,,,,,,,,,,,,,,,,,,,,,,,,,,,,,,,,,,,,,,,,,,,,,,,
1605183841.182426,123.000000,0.000000,4394.487305,4464.102539,4376.794922,4460.641113,4448.717773,4446.922852,4451.025879,4347.563965,4234.487305,4489.743652,4786.025879,4188.846191,4426.025879,4295.512695,2263.000000,3.000000,,,,0.000000,4.000000,4.000000,4.000000,4.000000,4.000000,4.000000,4.000000,4.000000,4.000000,4.000000,4.000000,4.000000,4.000000,4.000000,100.000000,,,,,,,,,,,,,,,,,,,,,,,,,,,,,,,,,,,,,,,,,,,,,,,,,,,,,,,,,,,,,,,,,,,,,,
1605183841.190308,124.000000,0.000000,4394.102539,4459.487305,4373.974121,4456.282227,4453.205078,4445.641113,4450.384766,4347.563965,4235.000000,4477.820313,4785.000000,4183.846191,4429.615234,4294.102539,5254.000000,3.000000,,,,0.000000,4.000000,4.000000,4.000000,4.000000,4.000000,4.000000,4.000000,4.000000,4.000000,4.000000,4.000000,4.000000,4.000000,4.000000,100.000000,,,,,,,,,,,,,,,,,,,,,,,,,,,,,,,,,,,,,,,,,,,,,,,,,,,,,,,,,,,,,,,,,,,,,,
1605183841.198190,125.000000,0.000000,4392.820313,4463.846191,4386.666504,4435.769043,4460.641113,4448.205078,4446.922852,4340.000000,4230.384766,4433.589844,4782.820313,4181.538574,4434.615234,4295.512695,1655.000000,3.000000,,,,0.000000,4.000000,4.000000,4.000000,4.000000,4.000000,4.000000,4.000000,4.000000,4.000000,4.000000,4.000000,4.000000,4.000000,4.000000,100.000000,,,,,,,,,,,,,,,,,,,,,,,,,,,,,,,,,,,,,,,,,,,,,,,,,,,,,,,,,,,,,,,,,,,,,,
1605183841.206071,126.000000,0.000000,4394.743652,4468.461426,4389.358887,4441.538574,4461.538574,4447.051270,4441.153809,4335.256348,4231.666504,4428.717773,4777.563965,4183.461426,4435.897461,4297.948730,3010.000000,3.000000,,,,0.000000,4.000000,4.000000,4.000000,4.000000,4.000000,4.000000,4.000000,4.000000,4.000000,4.000000,4.000000,4.000000,4.000000,4.000000,100.000000,,,,,,,,,,,,,,,,,,,,,,,,,,,,,,,,,,,,,,,,,,,,,,,,,,,,,,,,,,,,,,,,,,,,,,
