title:club, start timestamp:1605155774.756922, stop timestamp:1605155841.700198, headset type:EPOCPLUS, headset serial:3B9AEC95, headset firmware:625, channels:108, sampling rate:eeg_128;pow_8, samples:8497      , version:2.0
Timestamp,EEG.Counter,EEG.Interpolated,EEG.AF3,EEG.F7,EEG.F3,EEG.FC5,EEG.T7,EEG.P7,EEG.O1,EEG.O2,EEG.P8,EEG.T8,EEG.FC6,EEG.F4,EEG.F8,EEG.AF4,EEG.RawCq,EEG.Battery,MarkerIndex,MarkerType,MarkerValueInt,EEG.MarkerHardware,CQ.AF3,CQ.F7,CQ.F3,CQ.FC5,CQ.T7,CQ.P7,CQ.O1,CQ.O2,CQ.P8,CQ.T8,CQ.FC6,CQ.F4,CQ.F8,CQ.AF4,CQ.Overall,POW.AF3.Theta,POW.AF3.Alpha,POW.AF3.BetaL,POW.AF3.BetaH,POW.AF3.Gamma,POW.F7.Theta,POW.F7.Alpha,POW.F7.BetaL,POW.F7.BetaH,POW.F7.Gamma,POW.F3.Theta,POW.F3.Alpha,POW.F3.BetaL,POW.F3.BetaH,POW.F3.Gamma,POW.FC5.Theta,POW.FC5.Alpha,POW.FC5.BetaL,POW.FC5.BetaH,POW.FC5.Gamma,POW.T7.Theta,POW.T7.Alpha,POW.T7.BetaL,POW.T7.BetaH,POW.T7.Gamma,POW.P7.Theta,POW.P7.Alpha,POW.P7.BetaL,POW.P7.BetaH,POW.P7.Gamma,POW.O1.Theta,POW.O1.Alpha,POW.O1.BetaL,POW.O1.BetaH,POW.O1.Gamma,POW.O2.Theta,POW.O2.Alpha,POW.O2.BetaL,POW.O2.BetaH,POW.O2.Gamma,POW.P8.Theta,POW.P8.Alpha,POW.P8.BetaL,POW.P8.BetaH,POW.P8.Gamma,POW.T8.Theta,POW.T8.Alpha,POW.T8.BetaL,POW.T8.BetaH,POW.T8.Gamma,POW.FC6.Theta,POW.FC6.Alpha,POW.FC6.BetaL,POW.FC6.BetaH,POW.FC6.Gamma,POW.F4.Theta,POW.F4.Alpha,POW.F4.BetaL,POW.F4.BetaH,POW.F4.Gamma,POW.F8.Theta,POW.F8.Alpha,POW.F8.BetaL,POW.F8.BetaH,POW.F8.Gamma,POW.AF4.Theta,POW.AF4.Alpha,POW.AF4.BetaL,POW.AF4.BetaH,POW.AF4.Gamma
1605155774.756922,12.000000,0.000000,3997.435791,4140.256348,4156.153809,4152.563965,4090.384521,4109.358887,4106.282227,4219.230957,4234.871582,4152.307617,4153.846191,4161.922852,4137.307617,4154.615234,8173.000000,4.000000,,,,0.000000,4.000000,4.000000,4.000000,4.000000,4.000000,4.000000,4.000000,4.000000,4.000000,4.000000,4.000000,4.000000,4.000000,4.000000,100.000000,,,,,,,,,,,,,,,,,,,,,,,,,,,,,,,,,,,,,,,,,,,,,,,,,,,,,,,,,,,,,,,,,,,,,,
1605155774.764906,13.000000,0.000000,4006.666748,4147.436035,4162.692383,4155.512695,4089.615479,4109.615234,4106.282227,4218.846191,4233.333496,4156.410156,4159.487305,4154.487305,4135.384766,4161.538574,3174.000000,4.000000,,,,0.000000,4.000000,4.000000,4.000000,4.000000,4.000000,4.000000,4.000000,4.000000,4.000000,4.000000,4.000000,4.000000,4.000000,4.000000,100.000000,,,,,,,,,,,,,,,,,,,,,,,,,,,,,,,,,,,,,,,,,,,,,,,,,,,,,,,,,,,,,,,,,,,,,,
1605155774.772789,14.000000,0.000000,4006.281982,4144.743652,4169.487305,4179.487305,4082.820557,4103.589844,4100.000000,4212.179688,4231.025879,4153.077148,4166.025879,4150.256348,4154.230957,4169.230957,3205.000000,4.000000,,,,0.000000,4.000000,4.000000,4.000000,4.000000,4.000000,4.000000,4.000000,4.000000,4.000000,4.000000,4.000000,4.000000,4.000000,4.000000,100.000000,,,,,,,,,,,,,,,,,,,,,,,,,,,,,,,,,,,,,,,,,,,,,,,,,,,,,,,,,,,,,,,,,,,,,,
1605155774.780773,15.000000,0.000000,3993.974365,4135.384766,4157.820313,4170.128418,4082.179443,4107.179688,4099.102539,4209.102539,4228.077148,4125.769043,4146.282227,4147.820313,4143.974121,4155.128418,2417.000000,4.000000,,,,0.000000,4.000000,4.000000,4.000000,4.000000,4.000000,4.000000,4.000000,4.000000,4.000000,4.000000,4.000000,4.000000,4.000000,4.000000,100.000000,,,,,,,,,,,,,,,,,,,,,,,,,,,,,,,,,,,,,,,,,,,,,,,,,,,,,,,,,,,,,,,,,,,,,,
1605155774.788657,16.000000,0.000000,3988.333252,4130.000000,4145.000000,4135.384766,4083.974365,4104.871582,4103.205078,4212.948730,4228.205078,4115.897461,4123.589844,4142.948730,4115.384766,4127.179688,0.000000,4.000000,,,,0.000000,4.000000,4.000000,4.000000,4.000000,4.000000,4.000000,4.000000,4.000000,4.000000,4.000000,4.000000,4.000000,4.000000,4.000000,100.000000,,,,,,,,,,,,,,,,,,,,,,,,,,,,,,,,,,,,,,,,,,,,,,,,,,,,,,,,,,,,,,,,,,,,,,
1605155774.796640,17.000000,0.000000,4002.948730,4121.153809,4154.487305,4134.487305,4087.307617,4100.641113,4102.692383,4213.333496,4230.128418,4131.538574,4129.871582,4142.051270,4120.512695,4123.205078,0.000000,4.000000,,,,0.000000,4.000000,4.000000,4.000000,4.000000,4.000000,4.000000,4.000000,4.000000,4.000000,4.000000,4.000000,4.000000,4.000000,4.000000,100.000000,,,,,,,,,,,,,,,,,,,,,,,,,,,,,,,,,,,,,,,,,,,,,,,,,,,,,,,,,,,,,,,,,,,,,,
1605155774.804524,18.000000,0.000000,4014.615479,4118.461426,4161.410156,4157.563965,4086.538574,4110.128418,4102.051270,4209.743652,4229.871582,4130.128418,4149.487305,4150.384766,4144.487305,4143.205078,0.000000,4.000000,,,,0.000000,4.000000,4.000000,4.000000,4.000000,4.000000,4.000000,4.000000,4.000000,4.000000,4.000000,4.000000,4.000000,4.000000,4.000000,100.000000,,,,,,,,,,,,,,,,,,,,,,,,,,,,,,,,,,,,,,,,,,,,,,,,,,,,,,,,,,,,,,,,,,,,,,
1605155774.812508,19.000000,0.000000,4013.974365,4136.282227,4156.666504,4164.102539,4087.435791,4106.922852,4105.641113,4211.153809,4230.512695,4134.743652,4158.461426,4159.230957,4148.205078,4154.871582,0.000000,4.000000,,,,0.000000,4.000000,4.000000,4.000000,4.000000,4.000000,4.000000,4.000000,4.000000,4.000000,4.000000,4.000000,4.000000,4.000000,4.000000,100.000000,6.822547,2.257884,1.189846,2.169986,0.874440,1.157155,0.602689,1.202016,0.938549,1.299298,2.601418,0.960109,0.515673,0.436708,0.355007,0.732924,0.593373,1.049016,0.915305,2.221165,0.399189,0.454074,0.253387,0.164284,0.235218,5.401454,2.185136,1.243812,0.416953,0.230476,0.262077,0.239882,0.158870,0.112067,0.196427,0.347311,0.264262,0.270677,0.094642,0.113608,0.172870,0.105425,0.070837,0.031221,0.042627,3.988494,2.871294,2.122971,0.801867,0.566295,6.154917,3.212683,2.717960,0.725078,1.356555,2.605002,0.856231,0.312804,0.324617,0.333442,2.136891,1.402132,1.953855,1.299553,1.586117,3.714776,1.534030,0.690589,0.785947,0.615488
1605155774.820392,20.000000,0.000000,4008.974365,4136.922852,4157.948730,4148.461426,4091.410156,4094.487061,4105.000000,4215.512695,4233.589844,4162.692383,4152.948730,4156.153809,4137.948730,4147.307617,0.000000,4.000000,,,,0.000000,4.000000,4.000000,4.000000,4.000000,4.000000,4.000000,4.000000,4.000000,4.000000,4.000000,4.000000,4.000000,4.000000,4.000000,100.000000,,,,,,,,,,,,,,,,,,,,,,,,,,,,,,,,,,,,,,,,,,,,,,,,,,,,,,,,,,,,,,,,,,,,,,
1605155774.828375,21.000000,0.000000,3996.025635,4120.769043,4154.230957,4141.922852,4093.333252,4102.948730,4103.461426,4214.871582,4233.846191,4158.077148,4137.820313,4146.922852,4126.153809,4138.077148,0.000000,4.000000,,,,0.000000,4.000000,4.000000,4.000000,4.000000,4.000000,4.000000,4.000000,4.000000,4.000000,4.000000,4.000000,4.000000,4.000000,4.000000,100.000000,,,,,,,,,,,,,,,,,,,,,,,,,,,,,,,,,,,,,,,,,,,,,,,,,,,,,,,,,,,,,,,,,,,,,,
1605155774.836359,22.000000,0.000000,3979.102539,4132.820313,4142.179688,4159.230957,4092.820557,4113.461426,4105.512695,4211.794922,4228.974121,4128.461426,4139.102539,4149.487305,4128.846191,4145.769043,0.000000,4.000000,,,,0.000000,4.000000,4.000000,4.000000,4.000000,4.000000,4.000000,4.000000,4.000000,4.000000,4.000000,4.000000,4.000000,4.000000,4.000000,100.000000,,,,,,,,,,,,,,,,,,,,,,,,,,,,,,,,,,,,,,,,,,,,,,,,,,,,,,,,,,,,,,,,,,,,,,
1605155774.844244,23.000000,0.000000,3981.025635,4146.538574,4144.230957,4168.461426,4089.358887,4109.743652,4105.769043,4211.282227,4226.153809,4129.102539,4148.846191,4155.897461,4138.974121,4150.897461,0.000000,4.000000,,,,0.000000,4.000000,4.000000,4.000000,4.000000,4.000000,4.000000,4.000000,4.000000,4.000000,4.000000,4.000000,4.000000,4.000000,4.000000,100.000000,,,,,,,,,,,,,,,,,,,,,,,,,,,,,,,,,,,,,,,,,,,,,,,,,,,,,,,,,,,,,,,,,,,,,,
1605155774.852227,24.000000,0.000000,4000.641113,4131.025879,4152.820313,4154.487305,4092.948730,4105.512695,4105.641113,4213.717773,4228.205078,4141.794922,4146.153809,4151.922852,4138.333496,4140.256348,0.000000,4.000000,,,,0.000000,4.000000,4.000000,4.000000,4.000000,4.000000,4.000000,4.000000,4.000000,4.000000,4.000000,4.000000,4.000000,4.000000,4.000000,100.000000,,,,,,,,,,,,,,,,,,,,,,,,,,,,,,,,,,,,,,,,,,,,,,,,,,,,,,,,,,,,,,,,,,,,,,
1605155774.860112,25.000000,0.000000,4011.410156,4122.436035,4150.256348,4149.615234,4101.538574,4106.794922,4104.487305,4215.256348,4229.871582,4133.333496,4136.922852,4147.820313,4130.512695,4132.179688,0.000000,4.000000,,,,0.000000,4.000000,4.000000,4.000000,4.000000,4.000000,4.000000,4.000000,4.000000,4.000000,4.000000,4.000000,4.000000,4.000000,4.000000,100.000000,,,,,,,,,,,,,,,,,,,,,,,,,,,,,,,,,,,,,,,,,,,,,,,,,,,,,,,,,,,,,,,,,,,,,,
1605155774.868095,26.000000,0.000000,4005.000000,4132.692383,4144.743652,4149.871582,4102.692383,4114.871582,4105.256348,4214.871582,4230.128418,4126.025879,4135.641113,4149.102539,4128.589844,4132.692383,0.000000,4.000000,,,,0.000000,4.000000,4.000000,4.000000,4.000000,4.000000,4.000000,4.000000,4.000000,4.000000,4.000000,4.000000,4.000000,4.000000,4.000000,100.000000,,,,,,,,,,,,,,,,,,,,,,,,,,,,,,,,,,,,,,,,,,,,,,,,,,,,,,,,,,,,,,,,,,,,,,
1605155774.875979,27.000000,0.000000,3988.333252,4141.666504,4143.461426,4148.974121,4102.051270,4119.487305,4109.487305,4216.538574,4230.897461,4136.410156,4145.641113,4155.641113,4143.461426,4140.256348,0.000000,4.000000,,,,0.000000,4.000000,4.000000,4.000000,4.000000,4.000000,4.000000,4.000000,4.000000,4.000000,4.000000,4.000000,4.000000,4.000000,4.000000,100.000000,,,,,,,,,,,,,,,,,,,,,,,,,,,,,,,,,,,,,,,,,,,,,,,,,,,,,,,,,,,,,,,,,,,,,,
1605155774.883963,28.000000,0.000000,3976.281982,4137.948730,4144.230957,4161.153809,4103.461426,4108.846191,4102.051270,4215.512695,4230.256348,4142.948730,4151.282227,4159.615234,4149.871582,4149.615234,0.000000,4.000000,,,,0.000000,4.000000,4.000000,4.000000,4.000000,4.000000,4.000000,4.000000,4.000000,4.000000,4.000000,4.000000,4.000000,4.000000,4.000000,100.000000,,,,,,,,,,,,,,,,,,,,,,,,,,,,,,,,,,,,,,,,,,,,,,,,,,,,,,,,,,,,,,,,,,,,,,
1605155774.891847,29.000000,0.000000,3984.743652,4130.897461,4148.589844,4169.358887,4104.743652,4105.256348,4094.615479,4211.282227,4229.487305,4137.179688,4147.563965,4158.461426,4130.256348,4147.307617,0.000000,4.000000,,,,0.000000,4.000000,4.000000,4.000000,4.000000,4.000000,4.000000,4.000000,4.000000,4.000000,4.000000,4.000000,4.000000,4.000000,4.000000,100.000000,,,,,,,,,,,,,,,,,,,,,,,,,,,,,,,,,,,,,,,,,,,,,,,,,,,,,,,,,,,,,,,,,,,,,,
1605155774.899831,30.000000,0.000000,3996.538574,4132.051270,4152.179688,4163.846191,4102.563965,4110.769043,4102.179688,4213.077148,4231.025879,4140.000000,4151.410156,4159.487305,4125.000000,4146.538574,0.000000,4.000000,,,,0.000000,4.000000,4.000000,4.000000,4.000000,4.000000,4.000000,4.000000,4.000000,4.000000,4.000000,4.000000,4.000000,4.000000,4.000000,100.000000,,,,,,,,,,,,,,,,,,,,,,,,,,,,,,,,,,,,,,,,,,,,,,,,,,,,,,,,,,,,,,,,,,,,,,
1605155774.907715,31.000000,0.000000,3986.538574,4133.077148,4143.974121,4147.307617,4099.230957,4106.922852,4106.922852,4216.410156,4231.538574,4146.153809,4153.974121,4157.563965,4147.948730,4163.974121,0.000000,4.000000,,,,0.000000,4.000000,4.000000,4.000000,4.000000,4.000000,4.000000,4.000000,4.000000,4.000000,4.000000,4.000000,4.000000,4.000000,4.000000,100.000000,,,,,,,,,,,,,,,,,,,,,,,,,,,,,,,,,,,,,,,,,,,,,,,,,,,,,,,,,,,,,,,,,,,,,,
1605155774.915699,32.000000,0.000000,3973.461426,4132.179688,4135.512695,4143.461426,4102.820313,4108.077148,4103.717773,4215.384766,4231.153809,4147.307617,4154.358887,4156.538574,4159.871582,4176.666504,0.000000,4.000000,,,,0.000000,4.000000,4.000000,4.000000,4.000000,4.000000,4.000000,4.000000,4.000000,4.000000,4.000000,4.000000,4.000000,4.000000,4.000000,100.000000,,,,,,,,,,,,,,,,,,,,,,,,,,,,,,,,,,,,,,,,,,,,,,,,,,,,,,,,,,,,,,,,,,,,,,
1605155774.923582,33.000000,0.000000,3983.333252,4140.128418,4146.410156,4165.897461,4111.410156,4117.307617,4107.179688,4216.282227,4231.538574,4161.410156,4176.538574,4171.025879,4162.948730,4178.077148,0.000000,4.000000,,,,0.000000,4.000000,4.000000,4.000000,4.000000,4.000000,4.000000,4.000000,4.000000,4.000000,4.000000,4.000000,4.000000,4.000000,4.000000,100.000000,,,,,,,,,,,,,,,,,,,,,,,,,,,,,,,,,,,,,,,,,,,,,,,,,,,,,,,,,,,,,,,,,,,,,,
1605155774.931566,34.000000,0.000000,3992.435791,4125.512695,4148.589844,4154.743652,4102.307617,4110.769043,4108.333496,4215.769043,4231.025879,4159.871582,4164.743652,4172.563965,4156.282227,4174.230957,0.000000,4.000000,,,,0.000000,4.000000,4.000000,4.000000,4.000000,4.000000,4.000000,4.000000,4.000000,4.000000,4.000000,4.000000,4.000000,4.000000,4.000000,100.000000,,,,,,,,,,,,,,,,,,,,,,,,,,,,,,,,,,,,,,,,,,,,,,,,,,,,,,,,,,,,,,,,,,,,,,
1605155774.939450,35.000000,0.000000,3991.538574,4102.563965,4137.051270,4114.487305,4092.948730,4102.307617,4103.974121,4212.563965,4231.025879,4132.948730,4126.922852,4153.846191,4133.461426,4166.410156,0.000000,4.000000,,,,0.000000,4.000000,4.000000,4.000000,4.000000,4.000000,4.000000,4.000000,4.000000,4.000000,4.000000,4.000000,4.000000,4.000000,4.000000,100.000000,7.270732,2.593649,1.170584,2.121333,0.890407,1.279102,0.770489,1.058835,0.797745,1.098739,2.661108,1.060315,0.492740,0.482838,0.385630,0.845874,0.613606,1.057012,0.870428,2.117393,0.378219,0.552270,0.257502,0.152335,0.231024,3.857436,1.728495,1.089563,0.401277,0.252351,0.267243,0.295817,0.191249,0.122248,0.211060,0.361099,0.278360,0.322747,0.119678,0.134550,0.050949,0.057120,0.059841,0.026485,0.032815,4.896225,3.145462,2.395587,0.807944,0.586291,6.701871,3.556122,2.833717,0.743758,1.379992,2.405257,0.814204,0.353510,0.399419,0.342467,2.651513,1.411172,1.937892,1.242728,1.567141,4.867126,1.664123,0.873890,0.852648,0.674909
1605155774.947434,36.000000,0.000000,3998.974365,4129.102539,4148.333496,4137.563965,4108.717773,4112.948730,4108.077148,4215.512695,4231.922852,4140.384766,4154.487305,4157.692383,4141.922852,4166.410156,0.000000,4.000000,,,,0.000000,4.000000,4.000000,4.000000,4.000000,4.000000,4.000000,4.000000,4.000000,4.000000,4.000000,4.000000,4.000000,4.000000,4.000000,100.000000,,,,,,,,,,,,,,,,,,,,,,,,,,,,,,,,,,,,,,,,,,,,,,,,,,,,,,,,,,,,,,,,,,,,,,
1605155774.955317,37.000000,0.000000,3991.410156,4152.436035,4157.692383,4183.333496,4112.948730,4115.256348,4106.666504,4217.051270,4228.974121,4161.538574,4187.563965,4169.487305,4163.589844,4168.461426,0.000000,4.000000,,,,0.000000,4.000000,4.000000,4.000000,4.000000,4.000000,4.000000,4.000000,4.000000,4.000000,4.000000,4.000000,4.000000,4.000000,4.000000,100.000000,,,,,,,,,,,,,,,,,,,,,,,,,,,,,,,,,,,,,,,,,,,,,,,,,,,,,,,,,,,,,,,,,,,,,,
1605155774.963301,38.000000,0.000000,3972.820557,4123.589844,4134.743652,4156.666504,4102.179688,4105.000000,4099.487305,4212.692383,4227.307617,4144.615234,4149.358887,4155.897461,4149.102539,4162.051270,0.000000,4.000000,,,,0.000000,4.000000,4.000000,4.000000,4.000000,4.000000,4.000000,4.000000,4.000000,4.000000,4.000000,4.000000,4.000000,4.000000,4.000000,100.000000,,,,,,,,,,,,,,,,,,,,,,,,,,,,,,,,,,,,,,,,,,,,,,,,,,,,,,,,,,,,,,,,,,,,,,
1605155774.971184,39.000000,0.000000,3979.615479,4101.153809,4119.871582,4116.410156,4109.358887,4114.358887,4104.358887,4214.358887,4228.717773,4133.974121,4131.666504,4147.692383,4137.948730,4160.769043,0.000000,4.000000,,,,0.000000,4.000000,4.000000,4.000000,4.000000,4.000000,4.000000,4.000000,4.000000,4.000000,4.000000,4.000000,4.000000,4.000000,4.000000,100.000000,,,,,,,,,,,,,,,,,,,,,,,,,,,,,,,,,,,,,,,,,,,,,,,,,,,,,,,,,,,,,,,,,,,,,,
1605155774.979168,40.000000,0.000000,3998.076904,4115.512695,4136.282227,4140.000000,4117.948730,4124.743652,4107.948730,4215.641113,4226.153809,4147.692383,4152.051270,4159.487305,4147.692383,4173.205078,0.000000,4.000000,,,,0.000000,4.000000,4.000000,4.000000,4.000000,4.000000,4.000000,4.000000,4.000000,4.000000,4.000000,4.000000,4.000000,4.000000,4.000000,100.000000,,,,,,,,,,,,,,,,,,,,,,,,,,,,,,,,,,,,,,,,,,,,,,,,,,,,,,,,,,,,,,,,,,,,,,
1605155774.987051,41.000000,0.000000,4009.102539,4130.256348,4153.333496,4168.461426,4113.205078,4112.051270,4104.230957,4212.820313,4224.743652,4148.717773,4165.256348,4170.128418,4144.615234,4187.436035,0.000000,4.000000,,,,0.000000,4.000000,4.000000,4.000000,4.000000,4.000000,4.000000,4.000000,4.000000,4.000000,4.000000,4.000000,4.000000,4.000000,4.000000,100.000000,,,,,,,,,,,,,,,,,,,,,,,,,,,,,,,,,,,,,,,,,,,,,,,,,,,,,,,,,,,,,,,,,,,,,,
1605155774.995035,42.000000,0.000000,4012.948730,4130.128418,4152.436035,4150.000000,4114.615234,4109.358887,4106.538574,4215.000000,4230.000000,4150.000000,4171.922852,4168.333496,4138.846191,4179.743652,0.000000,4.000000,,,,0.000000,4.000000,4.000000,4.000000,4.000000,4.000000,4.000000,4.000000,4.000000,4.000000,4.000000,4.000000,4.000000,4.000000,4.000000,100.000000,,,,,,,,,,,,,,,,,,,,,,,,,,,,,,,,,,,,,,,,,,,,,,,,,,,,,,,,,,,,,,,,,,,,,,
1605155775.002918,43.000000,0.000000,4003.205078,4129.230957,4140.256348,4134.358887,4117.563965,4120.384766,4107.051270,4217.307617,4229.487305,4158.333496,4159.743652,4155.512695,4135.769043,4146.922852,0.000000,4.000000,,,,0.000000,4.000000,4.000000,4.000000,4.000000,4.000000,4.000000,4.000000,4.000000,4.000000,4.000000,4.000000,4.000000,4.000000,4.000000,100.000000,,,,,,,,,,,,,,,,,,,,,,,,,,,,,,,,,,,,,,,,,,,,,,,,,,,,,,,,,,,,,,,,,,,,,,
1605155775.010902,44.000000,0.000000,3989.358887,4131.922852,4133.461426,4152.307617,4115.897461,4119.615234,4103.333496,4214.487305,4220.512695,4149.615234,4138.846191,4147.948730,4135.897461,4126.410156,0.000000,4.000000,,,,0.000000,4.000000,4.000000,4.000000,4.000000,4.000000,4.000000,4.000000,4.000000,4.000000,4.000000,4.000000,4.000000,4.000000,4.000000,100.000000,,,,,,,,,,,,,,,,,,,,,,,,,,,,,,,,,,,,,,,,,,,,,,,,,,,,,,,,,,,,,,,,,,,,,,
1605155775.018785,45.000000,0.000000,3994.487061,4132.051270,4133.589844,4151.922852,4118.717773,4115.128418,4101.153809,4212.948730,4217.307617,4133.461426,4141.922852,4152.948730,4148.461426,4133.717773,0.000000,4.000000,,,,0.000000,4.000000,4.000000,4.000000,4.000000,4.000000,4.000000,4.000000,4.000000,4.000000,4.000000,4.000000,4.000000,4.000000,4.000000,100.000000,,,,,,,,,,,,,,,,,,,,,,,,,,,,,,,,,,,,,,,,,,,,,,,,,,,,,,,,,,,,,,,,,,,,,,
1605155775.026769,46.000000,0.000000,4007.564209,4127.563965,4133.589844,4138.205078,4117.179688,4114.102539,4096.538574,4212.563965,4220.641113,4131.153809,4141.410156,4153.205078,4144.743652,4139.230957,0.000000,4.000000,,,,0.000000,4.000000,4.000000,4.000000,4.000000,4.000000,4.000000,4.000000,4.000000,4.000000,4.000000,4.000000,4.000000,4.000000,4.000000,100.000000,,,,,,,,,,,,,,,,,,,,,,,,,,,,,,,,,,,,,,,,,,,,,,,,,,,,,,,,,,,,,,,,,,,,,,
1605155775.034652,47.000000,0.000000,4013.076904,4133.974121,4138.974121,4162.179688,4115.512695,4111.410156,4096.922852,4213.333496,4219.615234,4141.538574,4139.615234,4150.000000,4127.051270,4132.563965,0.000000,4.000000,,,,0.000000,4.000000,4.000000,4.000000,4.000000,4.000000,4.000000,4.000000,4.000000,4.000000,4.000000,4.000000,4.000000,4.000000,4.000000,100.000000,,,,,,,,,,,,,,,,,,,,,,,,,,,,,,,,,,,,,,,,,,,,,,,,,,,,,,,,,,,,,,,,,,,,,,
1605155775.042635,48.000000,0.000000,4013.974365,4138.846191,4139.743652,4172.179688,4122.948730,4110.769043,4103.205078,4214.358887,4218.846191,4150.769043,4154.487305,4156.282227,4132.563965,4137.179688,0.000000,4.000000,,,,0.000000,4.000000,4.000000,4.000000,4.000000,4.000000,4.000000,4.000000,4.000000,4.000000,4.000000,4.000000,4.000000,4.000000,4.000000,100.000000,,,,,,,,,,,,,,,,,,,,,,,,,,,,,,,,,,,,,,,,,,,,,,,,,,,,,,,,,,,,,,,,,,,,,,
1605155775.050619,49.000000,0.000000,4012.051270,4127.179688,4131.922852,4143.589844,4127.051270,4115.512695,4104.615234,4213.717773,4226.922852,4155.256348,4156.794922,4161.025879,4149.743652,4153.846191,0.000000,4.000000,,,,0.000000,4.000000,4.000000,4.000000,4.000000,4.000000,4.000000,4.000000,4.000000,4.000000,4.000000,4.000000,4.000000,4.000000,4.000000,100.000000,,,,,,,,,,,,,,,,,,,,,,,,,,,,,,,,,,,,,,,,,,,,,,,,,,,,,,,,,,,,,,,,,,,,,,
1605155775.058503,50.000000,0.000000,4012.564209,4131.922852,4135.000000,4147.563965,4122.820313,4120.384766,4106.922852,4215.128418,4229.358887,4154.102539,4153.333496,4156.410156,4148.589844,4151.410156,0.000000,4.000000,,,,0.000000,4.000000,4.000000,4.000000,4.000000,4.000000,4.000000,4.000000,4.000000,4.000000,4.000000,4.000000,4.000000,4.000000,4.000000,100.000000,,,,,,,,,,,,,,,,,,,,,,,,,,,,,,,,,,,,,,,,,,,,,,,,,,,,,,,,,,,,,,,,,,,,,,
1605155775.066487,51.000000,0.000000,4017.307617,4146.282227,4146.153809,4172.051270,4122.948730,4123.461426,4106.666504,4213.974121,4221.794922,4146.282227,4158.717773,4152.179688,4136.282227,4136.922852,0.000000,4.000000,,,,0.000000,4.000000,4.000000,4.000000,4.000000,4.000000,4.000000,4.000000,4.000000,4.000000,4.000000,4.000000,4.000000,4.000000,4.000000,100.000000,7.098014,2.752193,1.175595,2.014514,0.889233,1.344291,0.965964,0.877906,0.686895,0.959582,2.598159,1.118587,0.461070,0.525492,0.420402,0.950147,0.621562,1.004532,0.883723,2.033887,0.368170,0.664811,0.285339,0.140718,0.228581,2.282596,1.308873,0.938308,0.418396,0.279304,0.253276,0.355309,0.215212,0.132194,0.210436,0.367196,0.284892,0.353193,0.147078,0.150083,0.040045,0.042321,0.054298,0.024926,0.027944,5.894300,3.494998,2.504810,0.808658,0.642825,7.084644,3.966278,2.764744,0.829071,1.424380,2.151719,0.805292,0.414492,0.505124,0.354152,3.209548,1.452447,1.796737,1.269604,1.520065,5.808449,1.756197,1.109742,0.988653,0.725493
1605155775.074370,52.000000,0.000000,4020.641113,4141.794922,4145.384766,4156.153809,4129.487305,4123.846191,4099.615234,4208.077148,4221.922852,4142.563965,4155.641113,4153.717773,4134.615234,4144.487305,0.000000,4.000000,,,,0.000000,4.000000,4.000000,4.000000,4.000000,4.000000,4.000000,4.000000,4.000000,4.000000,4.000000,4.000000,4.000000,4.000000,4.000000,100.000000,,,,,,,,,,,,,,,,,,,,,,,,,,,,,,,,,,,,,,,,,,,,,,,,,,,,,,,,,,,,,,,,,,,,,,
1605155775.082354,53.000000,0.000000,4019.230713,4137.692383,4140.256348,4136.922852,4131.538574,4120.897461,4100.128418,4204.358887,4223.589844,4144.358887,4146.794922,4151.794922,4140.256348,4156.153809,0.000000,4.000000,,,,0.000000,4.000000,4.000000,4.000000,4.000000,4.000000,4.000000,4.000000,4.000000,4.000000,4.000000,4.000000,4.000000,4.000000,4.000000,100.000000,,,,,,,,,,,,,,,,,,,,,,,,,,,,,,,,,,,,,,,,,,,,,,,,,,,,,,,,,,,,,,,,,,,,,,
1605155775.090238,54.000000,0.000000,4019.102539,4145.000000,4137.436035,4158.846191,4126.410156,4123.077148,4105.256348,4204.358887,4216.025879,4140.897461,4152.692383,4150.641113,4138.205078,4153.589844,0.000000,4.000000,,,,0.000000,4.000000,4.000000,4.000000,4.000000,4.000000,4.000000,4.000000,4.000000,4.000000,4.000000,4.000000,4.000000,4.000000,4.000000,100.000000,,,,,,,,,,,,,,,,,,,,,,,,,,,,,,,,,,,,,,,,,,,,,,,,,,,,,,,,,,,,,,,,,,,,,,
1605155775.098222,55.000000,0.000000,4032.692383,4148.846191,4142.179688,4178.717773,4124.743652,4126.025879,4103.205078,4208.077148,4217.820313,4145.512695,4172.948730,4164.358887,4138.461426,4165.897461,0.000000,4.000000,,,,0.000000,4.000000,4.000000,4.000000,4.000000,4.000000,4.000000,4.000000,4.000000,4.000000,4.000000,4.000000,4.000000,4.000000,4.000000,100.000000,,,,,,,,,,,,,,,,,,,,,,,,,,,,,,,,,,,,,,,,,,,,,,,,,,,,,,,,,,,,,,,,,,,,,,
1605155775.106105,56.000000,0.000000,4050.384521,4145.769043,4157.051270,4168.846191,4131.922852,4122.692383,4104.615234,4214.230957,4229.871582,4169.102539,4195.000000,4177.563965,4154.230957,4186.666504,0.000000,4.000000,,,,0.000000,4.000000,4.000000,4.000000,4.000000,4.000000,4.000000,4.000000,4.000000,4.000000,4.000000,4.000000,4.000000,4.000000,4.000000,100.000000,,,,,,,,,,,,,,,,,,,,,,,,,,,,,,,,,,,,,,,,,,,,,,,,,,,,,,,,,,,,,,,,,,,,,,
1605155775.114089,57.000000,0.000000,4062.435791,4149.615234,4168.205078,4167.563965,4139.230957,4127.179688,4110.256348,4219.358887,4230.128418,4184.487305,4210.769043,4180.384766,4173.846191,4186.410156,0.000000,4.000000,,,,0.000000,4.000000,4.000000,4.000000,4.000000,4.000000,4.000000,4.000000,4.000000,4.000000,4.000000,4.000000,4.000000,4.000000,4.000000,100.000000,,,,,,,,,,,,,,,,,,,,,,,,,,,,,,,,,,,,,,,,,,,,,,,,,,,,,,,,,,,,,,,,,,,,,,
1605155775.121973,58.000000,0.000000,4070.897461,4163.461426,4166.922852,4177.307617,4137.051270,4140.128418,4110.769043,4219.615234,4227.307617,4177.436035,4223.205078,4184.615234,4179.230957,4182.307617,0.000000,4.000000,,,,0.000000,4.000000,4.000000,4.000000,4.000000,4.000000,4.000000,4.000000,4.000000,4.000000,4.000000,4.000000,4.000000,4.000000,4.000000,100.000000,,,,,,,,,,,,,,,,,,,,,,,,,,,,,,,,,,,,,,,,,,,,,,,,,,,,,,,,,,,,,,,,,,,,,,
1605155775.129957,59.000000,0.000000,4077.179443,4182.307617,4165.000000,4182.563965,4136.666504,4137.436035,4108.333496,4216.153809,4228.461426,4170.384766,4227.179688,4186.538574,4173.974121,4184.487305,0.000000,4.000000,,,,0.000000,4.000000,4.000000,4.000000,4.000000,4.000000,4.000000,4.000000,4.000000,4.000000,4.000000,4.000000,4.000000,4.000000,4.000000,100.000000,,,,,,,,,,,,,,,,,,,,,,,,,,,,,,,,,,,,,,,,,,,,,,,,,,,,,,,,,,,,,,,,,,,,,,
1605155775.137840,60.000000,0.000000,4079.743652,4185.512695,4169.743652,4187.820313,4139.871582,4119.615234,4106.410156,4213.205078,4222.820313,4172.179688,4218.974121,4176.794922,4160.641113,4183.205078,0.000000,4.000000,,,,0.000000,4.000000,4.000000,4.000000,4.000000,4.000000,4.000000,4.000000,4.000000,4.000000,4.000000,4.000000,4.000000,4.000000,4.000000,100.000000,,,,,,,,,,,,,,,,,,,,,,,,,,,,,,,,,,,,,,,,,,,,,,,,,,,,,,,,,,,,,,,,,,,,,,
1605155775.145824,61.000000,0.000000,4088.076904,4160.256348,4168.205078,4163.333496,4136.922852,4114.743652,4104.743652,4212.692383,4216.153809,4170.256348,4199.743652,4175.384766,4146.025879,4184.743652,0.000000,4.000000,,,,0.000000,4.000000,4.000000,4.000000,4.000000,4.000000,4.000000,4.000000,4.000000,4.000000,4.000000,4.000000,4.000000,4.000000,4.000000,100.000000,,,,,,,,,,,,,,,,,,,,,,,,,,,,,,,,,,,,,,,,,,,,,,,,,,,,,,,,,,,,,,,,,,,,,,
1605155775.153808,62.000000,0.000000,4093.846191,4140.512695,4159.743652,4135.000000,4128.846191,4120.384766,4106.025879,4212.820313,4217.948730,4163.077148,4189.102539,4183.461426,4151.666504,4190.256348,0.000000,4.000000,,,,0.000000,4.000000,4.000000,4.000000,4.000000,4.000000,4.000000,4.000000,4.000000,4.000000,4.000000,4.000000,4.000000,4.000000,4.000000,100.000000,,,,,,,,,,,,,,,,,,,,,,,,,,,,,,,,,,,,,,,,,,,,,,,,,,,,,,,,,,,,,,,,,,,,,,
1605155775.161692,63.000000,0.000000,4083.718018,4155.128418,4161.794922,4170.256348,4125.256348,4124.743652,4109.358887,4213.077148,4220.641113,4159.871582,4194.230957,4177.436035,4161.282227,4184.743652,0.000000,4.000000,,,,0.000000,4.000000,4.000000,4.000000,4.000000,4.000000,4.000000,4.000000,4.000000,4.000000,4.000000,4.000000,4.000000,4.000000,4.000000,100.000000,,,,,,,,,,,,,,,,,,,,,,,,,,,,,,,,,,,,,,,,,,,,,,,,,,,,,,,,,,,,,,,,,,,,,,
1605155775.169676,64.000000,0.000000,4080.384521,4181.410156,4171.153809,4207.436035,4133.205078,4132.051270,4111.025879,4218.846191,4218.846191,4166.666504,4212.179688,4171.538574,4161.153809,4176.410156,3320.000000,4.000000,,,,0.000000,4.000000,4.000000,4.000000,4.000000,4.000000,4.000000,4.000000,4.000000,4.000000,4.000000,4.000000,4.000000,4.000000,4.000000,100.000000,,,,,,,,,,,,,,,,,,,,,,,,,,,,,,,,,,,,,,,,,,,,,,,,,,,,,,,,,,,,,,,,,,,,,,
1605155775.177560,65.000000,0.000000,4085.384521,4168.461426,4163.717773,4175.384766,4140.641113,4139.102539,4111.538574,4219.358887,4219.358887,4170.769043,4211.025879,4175.897461,4149.871582,4171.410156,3419.000000,4.000000,,,,0.000000,4.000000,4.000000,4.000000,4.000000,4.000000,4.000000,4.000000,4.000000,4.000000,4.000000,4.000000,4.000000,4.000000,4.000000,100.000000,,,,,,,,,,,,,,,,,,,,,,,,,,,,,,,,,,,,,,,,,,,,,,,,,,,,,,,,,,,,,,,,,,,,,,
1605155775.185544,66.000000,0.000000,4077.179443,4129.230957,4144.102539,4141.410156,4132.307617,4132.948730,4107.820313,4207.436035,4218.589844,4144.615234,4173.589844,4170.897461,4135.641113,4165.897461,3174.000000,4.000000,,,,0.000000,4.000000,4.000000,4.000000,4.000000,4.000000,4.000000,4.000000,4.000000,4.000000,4.000000,4.000000,4.000000,4.000000,4.000000,100.000000,,,,,,,,,,,,,,,,,,,,,,,,,,,,,,,,,,,,,,,,,,,,,,,,,,,,,,,,,,,,,,,,,,,,,,
1605155775.193428,67.000000,0.000000,4077.307617,4134.358887,4146.666504,4157.692383,4124.487305,4118.846191,4098.846191,4198.974121,4215.384766,4119.871582,4162.051270,4165.384766,4138.077148,4174.615234,3549.000000,4.000000,,,,0.000000,4.000000,4.000000,4.000000,4.000000,4.000000,4.000000,4.000000,4.000000,4.000000,4.000000,4.000000,4.000000,4.000000,4.000000,100.000000,6.443507,2.679168,1.200655,1.862135,0.863607,1.346382,1.153377,0.696674,0.646915,0.900688,2.403238,1.103910,0.421645,0.557558,0.448727,1.021862,0.616187,0.941764,0.945904,1.980853,0.388330,0.774718,0.329919,0.131015,0.229632,1.141298,1.046773,0.838020,0.468025,0.304518,0.224216,0.405936,0.224812,0.140070,0.195208,0.373393,0.290654,0.350890,0.171732,0.154375,0.048435,0.042046,0.048088,0.024712,0.026425,6.701531,3.828588,2.415926,0.815355,0.719040,7.241807,4.346488,2.492816,0.978981,1.462520,1.927699,0.855949,0.477665,0.620395,0.362432,3.719626,1.501924,1.509399,1.397533,1.461534,6.344897,1.826790,1.358601,1.192703,0.752131
1605155775.201412,68.000000,0.000000,4093.589844,4160.641113,4162.563965,4173.717773,4134.871582,4128.077148,4098.205078,4203.717773,4216.922852,4141.794922,4192.692383,4173.589844,4145.769043,4183.205078,3504.000000,4.000000,,,,0.000000,4.000000,4.000000,4.000000,4.000000,4.000000,4.000000,4.000000,4.000000,4.000000,4.000000,4.000000,4.000000,4.000000,4.000000,100.000000,,,,,,,,,,,,,,,,,,,,,,,,,,,,,,,,,,,,,,,,,,,,,,,,,,,,,,,,,,,,,,,,,,,,,,
1605155775.209296,69.000000,0.000000,4088.461426,4158.974121,4157.563965,4170.128418,4139.487305,4140.769043,4102.307617,4206.538574,4219.358887,4158.717773,4197.179688,4172.692383,4141.538574,4171.282227,2543.000000,4.000000,,,,0.000000,4.000000,4.000000,4.000000,4.000000,4.000000,4.000000,4.000000,4.000000,4.000000,4.000000,4.000000,4.000000,4.000000,4.000000,100.000000,,,,,,,,,,,,,,,,,,,,,,,,,,,,,,,,,,,,,,,,,,,,,,,,,,,,,,,,,,,,,,,,,,,,,,
1605155775.217279,70.000000,0.000000,4066.025635,4153.846191,4142.692383,4160.384766,4127.948730,4122.692383,4097.820313,4201.282227,4217.692383,4143.205078,4163.205078,4157.051270,4133.717773,4161.282227,2403.000000,4.000000,,,,0.000000,4.000000,4.000000,4.000000,4.000000,4.000000,4.000000,4.000000,4.000000,4.000000,4.000000,4.000000,4.000000,4.000000,4.000000,100.000000,,,,,,,,,,,,,,,,,,,,,,,,,,,,,,,,,,,,,,,,,,,,,,,,,,,,,,,,,,,,,,,,,,,,,,
1605155775.225163,71.000000,0.000000,4051.794922,4153.589844,4136.410156,4150.641113,4130.256348,4112.051270,4093.076904,4202.307617,4216.666504,4141.794922,4156.025879,4156.153809,4139.358887,4170.641113,2088.000000,4.000000,,,,0.000000,4.000000,4.000000,4.000000,4.000000,4.000000,4.000000,4.000000,4.000000,4.000000,4.000000,4.000000,4.000000,4.000000,4.000000,100.000000,,,,,,,,,,,,,,,,,,,,,,,,,,,,,,,,,,,,,,,,,,,,,,,,,,,,,,,,,,,,,,,,,,,,,,
1605155775.233147,72.000000,0.000000,4041.538574,4142.820313,4130.769043,4153.717773,4141.538574,4133.974121,4099.743652,4205.256348,4217.948730,4145.641113,4167.307617,4160.256348,4144.615234,4170.897461,1332.000000,4.000000,,,,0.000000,4.000000,4.000000,4.000000,4.000000,4.000000,4.000000,4.000000,4.000000,4.000000,4.000000,4.000000,4.000000,4.000000,4.000000,100.000000,,,,,,,,,,,,,,,,,,,,,,,,,,,,,,,,,,,,,,,,,,,,,,,,,,,,,,,,,,,,,,,,,,,,,,
1605155775.241031,73.000000,0.000000,4042.307617,4144.487305,4130.384766,4164.615234,4141.538574,4141.410156,4103.846191,4202.692383,4218.333496,4139.230957,4168.333496,4155.384766,4141.538574,4163.077148,5150.000000,4.000000,,,,0.000000,4.000000,4.000000,4.000000,4.000000,4.000000,4.000000,4.000000,4.000000,4.000000,4.000000,4.000000,4.000000,4.000000,4.000000,100.000000,,,,,,,,,,,,,,,,,,,,,,,,,,,,,,,,,,,,,,,,,,,,,,,,,,,,,,,,,,,,,,,,,,,,,,
1605155775.249014,74.000000,0.000000,4053.589844,4152.436035,4139.743652,4171.410156,4139.102539,4124.615234,4097.436035,4203.461426,4218.333496,4147.179688,4169.743652,4153.461426,4139.102539,4176.794922,3216.000000,4.000000,,,,0.000000,4.000000,4.000000,4.000000,4.000000,4.000000,4.000000,4.000000,4.000000,4.000000,4.000000,4.000000,4.000000,4.000000,4.000000,100.000000,,,,,,,,,,,,,,,,,,,,,,,,,,,,,,,,,,,,,,,,,,,,,,,,,,,,,,,,,,,,,,,,,,,,,,
1605155775.256898,75.000000,0.000000,4042.564209,4135.000000,4128.974121,4153.461426,4138.333496,4120.256348,4092.820557,4204.615234,4217.948730,4148.717773,4160.128418,4152.436035,4136.153809,4193.461426,2372.000000,4.000000,,,,0.000000,4.000000,4.000000,4.000000,4.000000,4.000000,4.000000,4.000000,4.000000,4.000000,4.000000,4.000000,4.000000,4.000000,4.000000,100.000000,,,,,,,,,,,,,,,,,,,,,,,,,,,,,,,,,,,,,,,,,,,,,,,,,,,,,,,,,,,,,,,,,,,,,,
1605155775.264882,76.000000,0.000000,4016.281982,4133.461426,4108.205078,4139.871582,4139.487305,4128.717773,4092.435791,4199.102539,4216.153809,4126.794922,4137.948730,4142.692383,4132.179688,4184.615234,8481.000000,4.000000,,,,0.000000,4.000000,4.000000,4.000000,4.000000,4.000000,4.000000,4.000000,4.000000,4.000000,4.000000,4.000000,4.000000,4.000000,4.000000,100.000000,,,,,,,,,,,,,,,,,,,,,,,,,,,,,,,,,,,,,,,,,,,,,,,,,,,,,,,,,,,,,,,,,,,,,,
1605155775.272765,77.000000,0.000000,4015.641113,4141.666504,4113.205078,4152.307617,4132.692383,4130.384766,4089.743652,4194.358887,4213.846191,4107.307617,4122.948730,4131.922852,4106.410156,4165.384766,3122.000000,4.000000,,,,0.000000,4.000000,4.000000,4.000000,4.000000,4.000000,4.000000,4.000000,4.000000,4.000000,4.000000,4.000000,4.000000,4.000000,4.000000,100.000000,,,,,,,,,,,,,,,,,,,,,,,,,,,,,,,,,,,,,,,,,,,,,,,,,,,,,,,,,,,,,,,,,,,,,,
1605155775.280749,78.000000,0.000000,4033.718018,4126.666504,4122.307617,4148.589844,4120.512695,4124.871582,4089.487061,4197.051270,4212.692383,4104.487305,4122.179688,4138.974121,4097.436035,4176.153809,3216.000000,4.000000,,,,0.000000,4.000000,4.000000,4.000000,4.000000,4.000000,4.000000,4.000000,4.000000,4.000000,4.000000,4.000000,4.000000,4.000000,4.000000,100.000000,,,,,,,,,,,,,,,,,,,,,,,,,,,,,,,,,,,,,,,,,,,,,,,,,,,,,,,,,,,,,,,,,,,,,,
1605155775.288632,79.000000,0.000000,4024.358887,4120.897461,4109.230957,4120.256348,4131.153809,4131.538574,4103.333496,4202.563965,4213.974121,4117.307617,4135.512695,4151.282227,4127.820313,4193.205078,2372.000000,4.000000,,,,0.000000,4.000000,4.000000,4.000000,4.000000,4.000000,4.000000,4.000000,4.000000,4.000000,4.000000,4.000000,4.000000,4.000000,4.000000,100.000000,,,,,,,,,,,,,,,,,,,,,,,,,,,,,,,,,,,,,,,,,,,,,,,,,,,,,,,,,,,,,,,,,,,,,,
1605155775.296616,80.000000,0.000000,4020.384521,4125.128418,4109.743652,4123.846191,4149.871582,4138.461426,4109.102539,4204.487305,4215.641113,4133.077148,4142.563965,4149.615234,4134.615234,4179.487305,8481.000000,4.000000,,,,0.000000,4.000000,4.000000,4.000000,4.000000,4.000000,4.000000,4.000000,4.000000,4.000000,4.000000,4.000000,4.000000,4.000000,4.000000,100.000000,,,,,,,,,,,,,,,,,,,,,,,,,,,,,,,,,,,,,,,,,,,,,,,,,,,,,,,,,,,,,,,,,,,,,,
1605155775.304499,81.000000,0.000000,4049.871826,4118.846191,4130.897461,4155.512695,4138.461426,4128.205078,4093.076904,4200.897461,4216.025879,4129.102539,4141.282227,4145.641113,4123.205078,4170.384766,3122.000000,4.000000,,,,0.000000,4.000000,4.000000,4.000000,4.000000,4.000000,4.000000,4.000000,4.000000,4.000000,4.000000,4.000000,4.000000,4.000000,4.000000,100.000000,,,,,,,,,,,,,,,,,,,,,,,,,,,,,,,,,,,,,,,,,,,,,,,,,,,,,,,,,,,,,,,,,,,,,,
1605155775.312483,82.000000,0.000000,4037.820557,4107.179688,4118.974121,4139.871582,4122.948730,4124.487305,4088.974365,4196.410156,4210.897461,4110.384766,4127.692383,4147.563965,4128.333496,4183.846191,3216.000000,4.000000,,,,0.000000,4.000000,4.000000,4.000000,4.000000,4.000000,4.000000,4.000000,4.000000,4.000000,4.000000,4.000000,4.000000,4.000000,4.000000,100.000000,,,,,,,,,,,,,,,,,,,,,,,,,,,,,,,,,,,,,,,,,,,,,,,,,,,,,,,,,,,,,,,,,,,,,,
1605155775.320366,83.000000,0.000000,3998.205078,4103.846191,4092.692383,4107.436035,4133.333496,4132.820313,4101.538574,4197.692383,4207.948730,4098.846191,4114.743652,4144.358887,4119.615234,4183.974121,2372.000000,4.000000,,,,0.000000,4.000000,4.000000,4.000000,4.000000,4.000000,4.000000,4.000000,4.000000,4.000000,4.000000,4.000000,4.000000,4.000000,4.000000,100.000000,5.411900,2.416993,1.236212,1.709661,0.808107,1.289161,1.301233,0.559216,0.688880,0.911623,2.146843,1.014985,0.379769,0.583946,0.461658,1.037330,0.603116,0.920650,1.031531,1.962304,0.439269,0.856784,0.376830,0.122647,0.233965,0.583592,0.949628,0.793713,0.532385,0.320275,0.189876,0.434797,0.219037,0.145372,0.170241,0.385089,0.297250,0.318900,0.189623,0.145264,0.062472,0.050564,0.042936,0.027239,0.026863,6.985082,4.040849,2.165060,0.841779,0.793976,7.064875,4.572061,2.101979,1.175085,1.479968,1.786226,0.956650,0.529017,0.718871,0.366157,4.059369,1.524998,1.138499,1.594792,1.405573,6.503833,1.872583,1.586785,1.427181,0.753904
1605155775.328350,84.000000,0.000000,4001.666748,4116.794922,4099.358887,4126.538574,4141.025879,4136.282227,4105.256348,4200.384766,4213.717773,4107.563965,4123.333496,4136.282227,4104.871582,4164.871582,8481.000000,4.000000,,,,0.000000,4.000000,4.000000,4.000000,4.000000,4.000000,4.000000,4.000000,4.000000,4.000000,4.000000,4.000000,4.000000,4.000000,4.000000,100.000000,,,,,,,,,,,,,,,,,,,,,,,,,,,,,,,,,,,,,,,,,,,,,,,,,,,,,,,,,,,,,,,,,,,,,,
1605155775.336233,85.000000,0.000000,4012.307617,4135.000000,4112.820313,4149.230957,4140.128418,4136.025879,4103.589844,4201.794922,4217.820313,4129.358887,4142.307617,4139.487305,4122.820313,4161.666504,3122.000000,4.000000,,,,0.000000,4.000000,4.000000,4.000000,4.000000,4.000000,4.000000,4.000000,4.000000,4.000000,4.000000,4.000000,4.000000,4.000000,4.000000,100.000000,,,,,,,,,,,,,,,,,,,,,,,,,,,,,,,,,,,,,,,,,,,,,,,,,,,,,,,,,,,,,,,,,,,,,,
1605155775.344217,86.000000,0.000000,4005.384521,4132.820313,4116.025879,4140.128418,4145.897461,4138.974121,4108.589844,4207.692383,4216.025879,4145.000000,4152.820313,4152.692383,4134.743652,4172.948730,3216.000000,4.000000,,,,0.000000,4.000000,4.000000,4.000000,4.000000,4.000000,4.000000,4.000000,4.000000,4.000000,4.000000,4.000000,4.000000,4.000000,4.000000,100.000000,,,,,,,,,,,,,,,,,,,,,,,,,,,,,,,,,,,,,,,,,,,,,,,,,,,,,,,,,,,,,,,,,,,,,,
1605155775.352201,87.000000,0.000000,4014.358887,4120.897461,4121.282227,4136.410156,4144.358887,4138.974121,4109.615234,4210.769043,4214.102539,4143.717773,4153.077148,4157.948730,4125.897461,4172.436035,2372.000000,4.000000,,,,0.000000,4.000000,4.000000,4.000000,4.000000,4.000000,4.000000,4.000000,4.000000,4.000000,4.000000,4.000000,4.000000,4.000000,4.000000,100.000000,,,,,,,,,,,,,,,,,,,,,,,,,,,,,,,,,,,,,,,,,,,,,,,,,,,,,,,,,,,,,,,,,,,,,,
1605155775.360085,88.000000,0.000000,4016.281982,4112.692383,4114.487305,4137.436035,4137.051270,4138.461426,4105.769043,4205.384766,4214.230957,4131.666504,4141.794922,4146.410156,4126.153809,4159.871582,8481.000000,4.000000,,,,0.000000,4.000000,4.000000,4.000000,4.000000,4.000000,4.000000,4.000000,4.000000,4.000000,4.000000,4.000000,4.000000,4.000000,4.000000,100.000000,,,,,,,,,,,,,,,,,,,,,,,,,,,,,,,,,,,,,,,,,,,,,,,,,,,,,,,,,,,,,,,,,,,,,,
1605155775.367969,89.000000,0.000000,4003.589844,4110.641113,4105.769043,4129.615234,4142.051270,4136.025879,4104.871582,4203.717773,4215.897461,4125.000000,4127.051270,4138.717773,4123.333496,4147.436035,3122.000000,4.000000,,,,0.000000,4.000000,4.000000,4.000000,4.000000,4.000000,4.000000,4.000000,4.000000,4.000000,4.000000,4.000000,4.000000,4.000000,4.000000,100.000000,,,,,,,,,,,,,,,,,,,,,,,,,,,,,,,,,,,,,,,,,,,,,,,,,,,,,,,,,,,,,,,,,,,,,,
1605155775.375952,90.000000,0.000000,4010.512939,4121.794922,4116.794922,4136.666504,4146.282227,4132.436035,4106.025879,4206.410156,4217.051270,4127.692383,4130.769043,4145.256348,4113.333496,4136.666504,3216.000000,4.000000,,,,0.000000,4.000000,4.000000,4.000000,4.000000,4.000000,4.000000,4.000000,4.000000,4.000000,4.000000,4.000000,4.000000,4.000000,4.000000,100.000000,,,,,,,,,,,,,,,,,,,,,,,,,,,,,,,,,,,,,,,,,,,,,,,,,,,,,,,,,,,,,,,,,,,,,,
1605155775.383835,91.000000,0.000000,4012.692383,4126.282227,4118.974121,4146.922852,4142.563965,4136.922852,4106.666504,4205.897461,4215.384766,4120.128418,4126.410156,4142.307617,4108.205078,4122.820313,2372.000000,4.000000,,,,0.000000,4.000000,4.000000,4.000000,4.000000,4.000000,4.000000,4.000000,4.000000,4.000000,4.000000,4.000000,4.000000,4.000000,4.000000,100.000000,,,,,,,,,,,,,,,,,,,,,,,,,,,,,,,,,,,,,,,,,,,,,,,,,,,,,,,,,,,,,,,,,,,,,,
1605155775.391818,92.000000,0.000000,3999.615479,4116.666504,4106.922852,4140.897461,4139.487305,4136.410156,4104.743652,4205.128418,4215.128418,4109.615234,4112.563965,4133.461426,4105.384766,4117.692383,8481.000000,4.000000,,,,0.000000,4.000000,4.000000,4.000000,4.000000,4.000000,4.000000,4.000000,4.000000,4.000000,4.000000,4.000000,4.000000,4.000000,4.000000,100.000000,,,,,,,,,,,,,,,,,,,,,,,,,,,,,,,,,,,,,,,,,,,,,,,,,,,,,,,,,,,,,,,,,,,,,,
1605155775.399802,93.000000,0.000000,4002.564209,4122.820313,4108.333496,4134.871582,4142.179688,4132.179688,4103.974121,4208.077148,4218.333496,4123.461426,4124.230957,4137.692383,4115.128418,4127.692383,3122.000000,4.000000,,,,0.000000,4.000000,4.000000,4.000000,4.000000,4.000000,4.000000,4.000000,4.000000,4.000000,4.000000,4.000000,4.000000,4.000000,4.000000,100.000000,,,,,,,,,,,,,,,,,,,,,,,,,,,,,,,,,,,,,,,,,,,,,,,,,,,,,,,,,,,,,,,,,,,,,,
1605155775.407686,94.000000,0.000000,4011.153809,4128.333496,4107.051270,4123.846191,4144.487305,4133.461426,4105.000000,4205.128418,4217.563965,4123.333496,4128.974121,4140.897461,4119.743652,4135.897461,3216.000000,4.000000,,,,0.000000,4.000000,4.000000,4.000000,4.000000,4.000000,4.000000,4.000000,4.000000,4.000000,4.000000,4.000000,4.000000,4.000000,4.000000,100.000000,,,,,,,,,,,,,,,,,,,,,,,,,,,,,,,,,,,,,,,,,,,,,,,,,,,,,,,,,,,,,,,,,,,,,,
1605155775.415669,95.000000,0.000000,4011.666748,4128.461426,4100.641113,4123.717773,4144.102539,4138.461426,4105.000000,4201.282227,4216.794922,4102.179688,4111.666504,4132.436035,4104.102539,4134.487305,2372.000000,4.000000,,,,0.000000,4.000000,4.000000,4.000000,4.000000,4.000000,4.000000,4.000000,4.000000,4.000000,4.000000,4.000000,4.000000,4.000000,4.000000,100.000000,,,,,,,,,,,,,,,,,,,,,,,,,,,,,,,,,,,,,,,,,,,,,,,,,,,,,,,,,,,,,,,,,,,,,,
1605155775.423553,96.000000,0.000000,4017.564209,4135.512695,4109.102539,4154.358887,4143.333496,4141.410156,4105.512695,4207.692383,4217.820313,4114.743652,4126.538574,4133.717773,4102.563965,4132.692383,8481.000000,4.000000,,,,0.000000,4.000000,4.000000,4.000000,4.000000,4.000000,4.000000,4.000000,4.000000,4.000000,4.000000,4.000000,4.000000,4.000000,4.000000,100.000000,,,,,,,,,,,,,,,,,,,,,,,,,,,,,,,,,,,,,,,,,,,,,,,,,,,,,,,,,,,,,,,,,,,,,,
1605155775.431537,97.000000,0.000000,4035.769287,4135.897461,4126.538574,4173.846191,4149.230957,4140.512695,4106.153809,4216.025879,4218.333496,4151.153809,4163.205078,4145.384766,4124.102539,4136.666504,3122.000000,4.000000,,,,0.000000,4.000000,4.000000,4.000000,4.000000,4.000000,4.000000,4.000000,4.000000,4.000000,4.000000,4.000000,4.000000,4.000000,4.000000,100.000000,,,,,,,,,,,,,,,,,,,,,,,,,,,,,,,,,,,,,,,,,,,,,,,,,,,,,,,,,,,,,,,,,,,,,,
1605155775.439420,98.000000,0.000000,4044.871826,4136.153809,4128.077148,4154.358887,4159.615234,4138.461426,4106.410156,4215.384766,4218.461426,4156.666504,4168.974121,4146.794922,4133.461426,4139.102539,3216.000000,4.000000,,,,0.000000,4.000000,4.000000,4.000000,4.000000,4.000000,4.000000,4.000000,4.000000,4.000000,4.000000,4.000000,4.000000,4.000000,4.000000,100.000000,,,,,,,,,,,,,,,,,,,,,,,,,,,,,,,,,,,,,,,,,,,,,,,,,,,,,,,,,,,,,,,,,,,,,,
1605155775.447404,99.000000,0.000000,4028.333252,4133.589844,4112.948730,4127.307617,4158.846191,4142.436035,4107.051270,4207.820313,4216.282227,4135.512695,4143.717773,4139.230957,4119.615234,4137.563965,2372.000000,4.000000,,,,0.000000,4.000000,4.000000,4.000000,4.000000,4.000000,4.000000,4.000000,4.000000,4.000000,4.000000,4.000000,4.000000,4.000000,4.000000,100.000000,4.291915,2.029829,1.283584,1.616125,0.726115,1.201732,1.388162,0.493632,0.798395,0.968284,1.906471,0.866393,0.341220,0.616072,0.457342,0.986832,0.584474,0.961475,1.106627,1.990368,0.501234,0.889748,0.404712,0.116138,0.240112,0.501140,0.934090,0.767915,0.583708,0.324185,0.162297,0.431242,0.201119,0.149596,0.142759,0.404006,0.301092,0.268535,0.199660,0.125416,0.085313,0.062841,0.042890,0.035025,0.028257,6.665458,4.051069,1.821050,0.903514,0.851034,6.730329,4.550128,1.721817,1.395036,1.478836,1.753128,1.061855,0.557290,0.777583,0.366939,4.131678,1.502163,0.795365,1.792943,1.356124,6.571485,1.853770,1.768776,1.630534,0.737399
1605155775.455287,100.000000,0.000000,4015.384521,4114.615234,4106.410156,4123.333496,4148.077148,4148.589844,4107.563965,4206.538574,4214.871582,4132.436035,4127.179688,4134.871582,4107.436035,4141.153809,8481.000000,4.000000,,,,0.000000,4.000000,4.000000,4.000000,4.000000,4.000000,4.000000,4.000000,4.000000,4.000000,4.000000,4.000000,4.000000,4.000000,4.000000,100.000000,,,,,,,,,,,,,,,,,,,,,,,,,,,,,,,,,,,,,,,,,,,,,,,,,,,,,,,,,,,,,,,,,,,,,,
1605155775.463271,101.000000,0.000000,4030.897461,4113.846191,4115.384766,4132.179688,4146.922852,4146.794922,4107.307617,4211.538574,4215.128418,4139.358887,4131.025879,4141.025879,4113.333496,4148.205078,3122.000000,4.000000,,,,0.000000,4.000000,4.000000,4.000000,4.000000,4.000000,4.000000,4.000000,4.000000,4.000000,4.000000,4.000000,4.000000,4.000000,4.000000,100.000000,,,,,,,,,,,,,,,,,,,,,,,,,,,,,,,,,,,,,,,,,,,,,,,,,,,,,,,,,,,,,,,,,,,,,,
1605155775.471255,102.000000,0.000000,4051.923096,4137.307617,4127.948730,4146.025879,4158.846191,4144.487305,4107.307617,4214.230957,4215.641113,4132.692383,4153.205078,4158.589844,4122.307617,4163.717773,3216.000000,4.000000,,,,0.000000,4.000000,4.000000,4.000000,4.000000,4.000000,4.000000,4.000000,4.000000,4.000000,4.000000,4.000000,4.000000,4.000000,4.000000,100.000000,,,,,,,,,,,,,,,,,,,,,,,,,,,,,,,,,,,,,,,,,,,,,,,,,,,,,,,,,,,,,,,,,,,,,,
1605155775.479139,103.000000,0.000000,4058.718018,4146.794922,4140.897461,4166.794922,4168.077148,4148.589844,4108.846191,4217.436035,4217.436035,4136.410156,4177.307617,4173.077148,4122.051270,4181.538574,2372.000000,4.000000,,,,0.000000,4.000000,4.000000,4.000000,4.000000,4.000000,4.000000,4.000000,4.000000,4.000000,4.000000,4.000000,4.000000,4.000000,4.000000,100.000000,,,,,,,,,,,,,,,,,,,,,,,,,,,,,,,,,,,,,,,,,,,,,,,,,,,,,,,,,,,,,,,,,,,,,,
1605155775.487123,104.000000,0.000000,4055.128174,4149.102539,4146.538574,4170.512695,4168.077148,4151.538574,4108.846191,4218.589844,4220.512695,4163.717773,4177.436035,4164.743652,4122.948730,4174.615234,8481.000000,4.000000,,,,0.000000,4.000000,4.000000,4.000000,4.000000,4.000000,4.000000,4.000000,4.000000,4.000000,4.000000,4.000000,4.000000,4.000000,4.000000,100.000000,,,,,,,,,,,,,,,,,,,,,,,,,,,,,,,,,,,,,,,,,,,,,,,,,,,,,,,,,,,,,,,,,,,,,,
1605155775.495107,105.000000,1.000000,4060.000000,4145.714355,4146.904785,4166.538574,4166.007324,4151.904785,4108.314941,4217.985352,4219.688477,4162.143066,4174.944824,4163.113770,4121.373535,4171.648438,7608.285645,4.000000,,,,0.000000,4.000000,4.000000,4.000000,4.000000,4.000000,4.000000,4.000000,4.000000,4.000000,4.000000,4.000000,4.000000,4.000000,4.000000,100.000000,,,,,,,,,,,,,,,,,,,,,,,,,,,,,,,,,,,,,,,,,,,,,,,,,,,,,,,,,,,,,,,,,,,,,,
1605155775.502991,106.000000,1.000000,4064.871826,4142.326172,4147.270996,4162.563965,4163.937500,4152.270996,4107.783691,4217.380859,4218.864258,4160.567871,4172.454102,4161.483398,4119.798340,4168.681152,6735.571289,4.000000,,,,0.000000,4.000000,4.000000,4.000000,4.000000,4.000000,4.000000,4.000000,4.000000,4.000000,4.000000,4.000000,4.000000,4.000000,4.000000,100.000000,,,,,,,,,,,,,,,,,,,,,,,,,,,,,,,,,,,,,,,,,,,,,,,,,,,,,,,,,,,,,,,,,,,,,,
1605155775.510876,107.000000,1.000000,4069.743652,4138.937500,4147.637207,4158.589844,4161.868164,4152.637207,4107.252930,4216.776367,4218.040527,4158.992676,4169.963379,4159.853516,4118.223633,4165.714355,5862.856934,4.000000,,,,0.000000,4.000000,4.000000,4.000000,4.000000,4.000000,4.000000,4.000000,4.000000,4.000000,4.000000,4.000000,4.000000,4.000000,4.000000,100.000000,,,,,,,,,,,,,,,,,,,,,,,,,,,,,,,,,,,,,,,,,,,,,,,,,,,,,,,,,,,,,,,,,,,,,,
1605155775.518760,108.000000,1.000000,4074.615479,4135.549316,4148.003906,4154.615234,4159.798340,4153.003906,4106.721680,4216.172363,4217.216309,4157.417480,4167.472656,4158.223633,4116.648438,4162.747070,4990.143066,4.000000,,,,0.000000,4.000000,4.000000,4.000000,4.000000,4.000000,4.000000,4.000000,4.000000,4.000000,4.000000,4.000000,4.000000,4.000000,4.000000,100.000000,,,,,,,,,,,,,,,,,,,,,,,,,,,,,,,,,,,,,,,,,,,,,,,,,,,,,,,,,,,,,,,,,,,,,,
1605155775.526645,109.000000,1.000000,4079.487061,4132.161133,4148.370117,4150.641113,4157.729004,4153.370117,4106.190430,4215.567871,4216.392090,4155.842285,4164.981445,4156.593262,4115.073242,4159.780273,4117.428711,4.000000,,,,0.000000,4.000000,4.000000,4.000000,4.000000,4.000000,4.000000,4.000000,4.000000,4.000000,4.000000,4.000000,4.000000,4.000000,4.000000,100.000000,,,,,,,,,,,,,,,,,,,,,,,,,,,,,,,,,,,,,,,,,,,,,,,,,,,,,,,,,,,,,,,,,,,,,,
1605155775.534529,110.000000,1.000000,4084.358887,4128.772949,4148.736328,4146.666504,4155.659180,4153.736328,4105.659180,4214.963379,4215.567871,4154.267578,4162.490723,4154.963379,4113.498047,4156.812988,3244.714355,4.000000,,,,0.000000,4.000000,4.000000,4.000000,4.000000,4.000000,4.000000,4.000000,4.000000,4.000000,4.000000,4.000000,4.000000,4.000000,4.000000,100.000000,,,,,,,,,,,,,,,,,,,,,,,,,,,,,,,,,,,,,,,,,,,,,,,,,,,,,,,,,,,,,,,,,,,,,,
1605155775.542414,111.000000,0.000000,4089.230713,4125.384766,4149.102539,4142.692383,4153.589844,4154.102539,4105.128418,4214.358887,4214.743652,4152.692383,4160.000000,4153.333496,4111.922852,4153.846191,2372.000000,4.000000,,,,0.000000,4.000000,4.000000,4.000000,4.000000,4.000000,4.000000,4.000000,4.000000,4.000000,4.000000,4.000000,4.000000,4.000000,4.000000,100.000000,,,,,,,,,,,,,,,,,,,,,,,,,,,,,,,,,,,,,,,,,,,,,,,,,,,,,,,,,,,,,,,,,,,,,,
1605155775.550196,112.000000,0.000000,4073.461426,4149.487305,4148.333496,4149.358887,4159.358887,4156.410156,4106.666504,4211.794922,4215.769043,4152.051270,4161.153809,4152.436035,4116.153809,4145.256348,8481.000000,4.000000,,,,0.000000,4.000000,4.000000,4.000000,4.000000,4.000000,4.000000,4.000000,4.000000,4.000000,4.000000,4.000000,4.000000,4.000000,4.000000,100.000000,,,,,,,,,,,,,,,,,,,,,,,,,,,,,,,,,,,,,,,,,,,,,,,,,,,,,,,,,,,,,,,,,,,,,,
1605155775.558077,113.000000,0.000000,4067.435791,4151.410156,4147.436035,4162.179688,4153.461426,4156.410156,4105.769043,4207.820313,4215.897461,4153.717773,4175.384766,4163.461426,4121.410156,4153.846191,3122.000000,4.000000,,,,0.000000,4.000000,4.000000,4.000000,4.000000,4.000000,4.000000,4.000000,4.000000,4.000000,4.000000,4.000000,4.000000,4.000000,4.000000,100.000000,,,,,,,,,,,,,,,,,,,,,,,,,,,,,,,,,,,,,,,,,,,,,,,,,,,,,,,,,,,,,,,,,,,,,,
1605155775.565859,114.000000,0.000000,4068.718018,4145.512695,4150.641113,4161.153809,4143.974121,4149.871582,4105.897461,4210.641113,4215.512695,4153.589844,4180.000000,4169.615234,4114.743652,4160.641113,3216.000000,4.000000,,,,0.000000,4.000000,4.000000,4.000000,4.000000,4.000000,4.000000,4.000000,4.000000,4.000000,4.000000,4.000000,4.000000,4.000000,4.000000,100.000000,,,,,,,,,,,,,,,,,,,,,,,,,,,,,,,,,,,,,,,,,,,,,,,,,,,,,,,,,,,,,,,,,,,,,,
1605155775.573741,115.000000,0.000000,4081.281982,4158.077148,4163.205078,4173.461426,4150.769043,4147.179688,4112.692383,4215.897461,4219.102539,4172.563965,4189.487305,4166.410156,4107.948730,4149.230957,2372.000000,4.000000,,,,0.000000,4.000000,4.000000,4.000000,4.000000,4.000000,4.000000,4.000000,4.000000,4.000000,4.000000,4.000000,4.000000,4.000000,4.000000,100.000000,3.562190,1.601851,1.335975,1.619563,0.630041,1.126268,1.407992,0.489237,0.944285,1.047634,1.750860,0.691666,0.308034,0.665524,0.442869,0.889349,0.563722,1.040722,1.148183,2.082076,0.545169,0.864588,0.396186,0.114807,0.247839,0.601606,0.898486,0.711967,0.597597,0.321978,0.155895,0.393406,0.176860,0.155933,0.119959,0.425543,0.298263,0.214739,0.203749,0.100988,0.116452,0.074204,0.050522,0.049702,0.030433,5.916054,3.862640,1.454104,1.016872,0.879402,6.599521,4.295133,1.447033,1.620959,1.467728,1.843906,1.127693,0.557033,0.784224,0.364485,4.058967,1.450316,0.564517,1.918737,1.302748,6.883887,1.731627,1.884629,1.741217,0.710968
1605155775.581523,116.000000,0.000000,4101.153809,4145.512695,4168.461426,4175.512695,4163.205078,4157.692383,4115.000000,4215.256348,4220.512695,4178.846191,4195.256348,4168.077148,4108.205078,4153.077148,8481.000000,4.000000,,,,0.000000,4.000000,4.000000,4.000000,4.000000,4.000000,4.000000,4.000000,4.000000,4.000000,4.000000,4.000000,4.000000,4.000000,4.000000,100.000000,,,,,,,,,,,,,,,,,,,,,,,,,,,,,,,,,,,,,,,,,,,,,,,,,,,,,,,,,,,,,,,,,,,,,,
1605155775.589405,117.000000,0.000000,4102.563965,4116.025879,4164.487305,4154.230957,4158.589844,4157.948730,4112.563965,4215.128418,4216.794922,4155.769043,4187.307617,4178.717773,4107.563965,4175.000000,3122.000000,4.000000,,,,0.000000,4.000000,4.000000,4.000000,4.000000,4.000000,4.000000,4.000000,4.000000,4.000000,4.000000,4.000000,4.000000,4.000000,4.000000,100.000000,,,,,,,,,,,,,,,,,,,,,,,,,,,,,,,,,,,,,,,,,,,,,,,,,,,,,,,,,,,,,,,,,,,,,,
1605155775.597186,118.000000,0.000000,4084.743652,4131.153809,4162.948730,4151.538574,4150.000000,4149.743652,4114.358887,4217.051270,4215.384766,4155.128418,4182.307617,4186.538574,4109.743652,4171.538574,3216.000000,4.000000,,,,0.000000,4.000000,4.000000,4.000000,4.000000,4.000000,4.000000,4.000000,4.000000,4.000000,4.000000,4.000000,4.000000,4.000000,4.000000,100.000000,,,,,,,,,,,,,,,,,,,,,,,,,,,,,,,,,,,,,,,,,,,,,,,,,,,,,,,,,,,,,,,,,,,,,,
1605155775.605068,119.000000,0.000000,4071.025635,4166.922852,4163.974121,4172.051270,4157.436035,4157.692383,4112.563965,4215.769043,4219.615234,4173.846191,4197.692383,4184.743652,4126.025879,4149.102539,2372.000000,4.000000,,,,0.000000,4.000000,4.000000,4.000000,4.000000,4.000000,4.000000,4.000000,4.000000,4.000000,4.000000,4.000000,4.000000,4.000000,4.000000,100.000000,,,,,,,,,,,,,,,,,,,,,,,,,,,,,,,,,,,,,,,,,,,,,,,,,,,,,,,,,,,,,,,,,,,,,,
1605155775.612849,120.000000,0.000000,4078.333252,4176.922852,4174.102539,4180.512695,4166.153809,4167.307617,4109.230957,4216.922852,4222.179688,4173.974121,4216.282227,4182.307617,4138.333496,4151.282227,8481.000000,4.000000,,,,0.000000,4.000000,4.000000,4.000000,4.000000,4.000000,4.000000,4.000000,4.000000,4.000000,4.000000,4.000000,4.000000,4.000000,4.000000,100.000000,,,,,,,,,,,,,,,,,,,,,,,,,,,,,,,,,,,,,,,,,,,,,,,,,,,,,,,,,,,,,,,,,,,,,,
1605155775.620730,121.000000,0.000000,4100.769043,4173.846191,4187.692383,4176.282227,4162.307617,4160.897461,4107.692383,4214.358887,4219.871582,4167.692383,4210.512695,4178.717773,4121.666504,4163.974121,3122.000000,4.000000,,,,0.000000,4.000000,4.000000,4.000000,4.000000,4.000000,4.000000,4.000000,4.000000,4.000000,4.000000,4.000000,4.000000,4.000000,4.000000,100.000000,,,,,,,,,,,,,,,,,,,,,,,,,,,,,,,,,,,,,,,,,,,,,,,,,,,,,,,,,,,,,,,,,,,,,,
1605155775.628512,122.000000,0.000000,4113.974121,4170.384766,4183.589844,4178.717773,4160.128418,4152.820313,4100.897461,4204.743652,4218.589844,4170.000000,4191.794922,4170.000000,4095.897461,4157.436035,3216.000000,4.000000,,,,0.000000,4.000000,4.000000,4.000000,4.000000,4.000000,4.000000,4.000000,4.000000,4.000000,4.000000,4.000000,4.000000,4.000000,4.000000,100.000000,,,,,,,,,,,,,,,,,,,,,,,,,,,,,,,,,,,,,,,,,,,,,,,,,,,,,,,,,,,,,,,,,,,,,,
1605155775.636393,123.000000,0.000000,4100.769043,4162.179688,4170.512695,4185.256348,4158.461426,4155.000000,4099.615234,4202.948730,4219.615234,4166.538574,4180.769043,4161.153809,4090.897461,4148.461426,2372.000000,4.000000,,,,0.000000,4.000000,4.000000,4.000000,4.000000,4.000000,4.000000,4.000000,4.000000,4.000000,4.000000,4.000000,4.000000,4.000000,4.000000,100.000000,,,,,,,,,,,,,,,,,,,,,,,,,,,,,,,,,,,,,,,,,,,,,,,,,,,,,,,,,,,,,,,,,,,,,,
1605155775.644175,124.000000,0.000000,4083.076904,4163.461426,4169.743652,4186.538574,4158.461426,4162.307617,4113.333496,4214.871582,4219.230957,4165.641113,4194.358887,4167.563965,4104.615234,4164.102539,8481.000000,4.000000,,,,0.000000,4.000000,4.000000,4.000000,4.000000,4.000000,4.000000,4.000000,4.000000,4.000000,4.000000,4.000000,4.000000,4.000000,4.000000,100.000000,,,,,,,,,,,,,,,,,,,,,,,,,,,,,,,,,,,,,,,,,,,,,,,,,,,,,,,,,,,,,,,,,,,,,,
1605155775.652056,125.000000,0.000000,4092.564209,4158.846191,4174.743652,4170.897461,4169.230957,4169.102539,4114.230957,4217.820313,4218.461426,4170.256348,4208.717773,4181.410156,4121.025879,4188.717773,3122.000000,4.000000,,,,0.000000,4.000000,4.000000,4.000000,4.000000,4.000000,4.000000,4.000000,4.000000,4.000000,4.000000,4.000000,4.000000,4.000000,4.000000,100.000000,,,,,,,,,,,,,,,,,,,,,,,,,,,,,,,,,,,,,,,,,,,,,,,,,,,,,,,,,,,,,,,,,,,,,,
1605155775.659838,126.000000,0.000000,4115.000000,4141.025879,4171.922852,4152.820313,4167.051270,4167.051270,4101.538574,4208.077148,4216.666504,4166.538574,4203.333496,4181.922852,4121.538574,4190.641113,3216.000000,4.000000,,,,0.000000,4.000000,4.000000,4.000000,4.000000,4.000000,4.000000,4.000000,4.000000,4.000000,4.000000,4.000000,4.000000,4.000000,4.000000,100.000000,,,,,,,,,,,,,,,,,,,,,,,,,,,,,,,,,,,,,,,,,,,,,,,,,,,,,,,,,,,,,,,,,,,,,,
1605155775.667719,127.000000,0.000000,4115.897461,4151.025879,4171.538574,4160.256348,4157.436035,4158.974121,4106.794922,4208.717773,4217.820313,4163.974121,4194.230957,4171.922852,4104.871582,4172.820313,54.000000,4.000000,,,,0.000000,4.000000,4.000000,4.000000,4.000000,4.000000,4.000000,4.000000,4.000000,4.000000,4.000000,4.000000,4.000000,4.000000,4.000000,100.000000,,,,,,,,,,,,,,,,,,,,,,,,,,,,,,,,,,,,,,,,,,,,,,,,,,,,,,,,,,,,,,,,,,,,,,
1605155775.675500,0.000000,0.000000,4109.487305,4173.205078,4179.487305,4175.128418,4170.769043,4154.743652,4117.051270,4216.410156,4224.230957,4169.615234,4204.615234,4167.820313,4102.820313,4172.948730,3319.000000,4.000000,,,,0.000000,4.000000,4.000000,4.000000,4.000000,4.000000,4.000000,4.000000,4.000000,4.000000,4.000000,4.000000,4.000000,4.000000,4.000000,100.000000,,,,,,,,,,,,,,,,,,,,,,,,,,,,,,,,,,,,,,,,,,,,,,,,,,,,,,,,,,,,,,,,,,,,,,
1605155775.683381,1.000000,0.000000,4111.666504,4177.563965,4184.743652,4188.205078,4183.974121,4156.025879,4110.384766,4216.025879,4225.384766,4177.051270,4219.615234,4171.794922,4112.179688,4190.897461,3424.000000,4.000000,,,,0.000000,4.000000,4.000000,4.000000,4.000000,4.000000,4.000000,4.000000,4.000000,4.000000,4.000000,4.000000,4.000000,4.000000,4.000000,100.000000,,,,,,,,,,,,,,,,,,,,,,,,,,,,,,,,,,,,,,,,,,,,,,,,,,,,,,,,,,,,,,,,,,,,,,
1605155775.691162,2.000000,0.000000,4094.743652,4169.743652,4177.692383,4186.794922,4171.410156,4159.102539,4103.205078,4211.538574,4218.974121,4168.333496,4199.743652,4167.179688,4094.358887,4183.205078,3176.000000,4.000000,,,,0.000000,4.000000,4.000000,4.000000,4.000000,4.000000,4.000000,4.000000,4.000000,4.000000,4.000000,4.000000,4.000000,4.000000,4.000000,100.000000,,,,,,,,,,,,,,,,,,,,,,,,,,,,,,,,,,,,,,,,,,,,,,,,,,,,,,,,,,,,,,,,,,,,,,
1605155775.698944,3.000000,0.000000,4086.538574,4164.358887,4172.436035,4171.538574,4157.820313,4157.436035,4107.307617,4211.666504,4216.282227,4150.641113,4175.769043,4159.230957,4086.153809,4169.743652,3554.000000,4.000000,,,,0.000000,4.000000,4.000000,4.000000,4.000000,4.000000,4.000000,4.000000,4.000000,4.000000,4.000000,4.000000,4.000000,4.000000,4.000000,100.000000,3.363812,1.217476,1.384501,1.710580,0.543932,1.089170,1.371878,0.516196,1.087117,1.125535,1.741246,0.532104,0.284356,0.737278,0.431481,0.780601,0.552089,1.122075,1.163961,2.233719,0.545348,0.791057,0.349172,0.123099,0.258318,0.666713,0.801019,0.609669,0.569225,0.322170,0.182120,0.328858,0.151536,0.167128,0.106189,0.438337,0.286604,0.169588,0.205954,0.078997,0.150769,0.081142,0.065645,0.070269,0.033519,4.931129,3.572395,1.154394,1.192578,0.878867,6.811689,3.932902,1.335299,1.849197,1.454447,2.032404,1.130918,0.533907,0.746173,0.358064,3.831365,1.405362,0.475795,1.937348,1.230841,7.551678,1.516763,1.928066,1.726329,0.681663
1605155775.706826,4.000000,0.000000,4107.820313,4150.000000,4170.769043,4159.230957,4152.692383,4150.641113,4105.384766,4211.794922,4216.538574,4140.641113,4170.897461,4153.717773,4098.846191,4176.538574,3507.000000,4.000000,,,,0.000000,4.000000,4.000000,4.000000,4.000000,4.000000,4.000000,4.000000,4.000000,4.000000,4.000000,4.000000,4.000000,4.000000,4.000000,100.000000,,,,,,,,,,,,,,,,,,,,,,,,,,,,,,,,,,,,,,,,,,,,,,,,,,,,,,,,,,,,,,,,,,,,,,
1605155775.714608,5.000000,0.000000,4110.897461,4139.615234,4163.717773,4152.179688,4160.256348,4158.846191,4104.102539,4211.153809,4215.769043,4143.333496,4164.487305,4153.846191,4087.435791,4178.077148,2534.000000,4.000000,,,,0.000000,4.000000,4.000000,4.000000,4.000000,4.000000,4.000000,4.000000,4.000000,4.000000,4.000000,4.000000,4.000000,4.000000,4.000000,100.000000,,,,,,,,,,,,,,,,,,,,,,,,,,,,,,,,,,,,,,,,,,,,,,,,,,,,,,,,,,,,,,,,,,,,,,
1605155775.722489,6.000000,0.000000,4091.153809,4147.948730,4161.153809,4157.563965,4173.589844,4173.717773,4113.333496,4217.307617,4218.974121,4159.230957,4170.256348,4163.589844,4068.205078,4175.256348,2405.000000,4.000000,,,,0.000000,4.000000,4.000000,4.000000,4.000000,4.000000,4.000000,4.000000,4.000000,4.000000,4.000000,4.000000,4.000000,4.000000,4.000000,100.000000,,,,,,,,,,,,,,,,,,,,,,,,,,,,,,,,,,,,,,,,,,,,,,,,,,,,,,,,,,,,,,,,,,,,,,
1605155775.730271,7.000000,0.000000,4090.384521,4157.948730,4164.102539,4173.846191,4171.410156,4165.641113,4111.025879,4217.307617,4220.641113,4159.615234,4182.948730,4168.846191,4080.769287,4183.333496,2066.000000,4.000000,,,,0.000000,4.000000,4.000000,4.000000,4.000000,4.000000,4.000000,4.000000,4.000000,4.000000,4.000000,4.000000,4.000000,4.000000,4.000000,100.000000,,,,,,,,,,,,,,,,,,,,,,,,,,,,,,,,,,,,,,,,,,,,,,,,,,,,,,,,,,,,,,,,,,,,,,
1605155775.738153,8.000000,0.000000,4104.615234,4177.179688,4173.974121,4190.256348,4172.051270,4155.384766,4102.692383,4213.205078,4219.871582,4156.025879,4207.563965,4173.205078,4113.717773,4190.769043,1317.000000,4.000000,,,,0.000000,4.000000,4.000000,4.000000,4.000000,4.000000,4.000000,4.000000,4.000000,4.000000,4.000000,4.000000,4.000000,4.000000,4.000000,100.000000,,,,,,,,,,,,,,,,,,,,,,,,,,,,,,,,,,,,,,,,,,,,,,,,,,,,,,,,,,,,,,,,,,,,,,
1605155775.745934,9.000000,0.000000,4103.974121,4178.461426,4178.205078,4188.077148,4183.461426,4158.333496,4108.077148,4217.307617,4221.666504,4175.128418,4218.589844,4178.077148,4120.641113,4186.153809,5145.000000,4.000000,,,,0.000000,4.000000,4.000000,4.000000,4.000000,4.000000,4.000000,4.000000,4.000000,4.000000,4.000000,4.000000,4.000000,4.000000,4.000000,100.000000,,,,,,,,,,,,,,,,,,,,,,,,,,,,,,,,,,,,,,,,,,,,,,,,,,,,,,,,,,,,,,,,,,,,,,
1605155775.753815,10.000000,0.000000,4092.307617,4139.358887,4158.333496,4154.358887,4174.230957,4161.153809,4108.333496,4213.974121,4220.384766,4175.897461,4179.487305,4169.230957,4088.718018,4171.794922,3233.000000,4.000000,,,,0.000000,4.000000,4.000000,4.000000,4.000000,4.000000,4.000000,4.000000,4.000000,4.000000,4.000000,4.000000,4.000000,4.000000,4.000000,100.000000,,,,,,,,,,,,,,,,,,,,,,,,,,,,,,,,,,,,,,,,,,,,,,,,,,,,,,,,,,,,,,,,,,,,,,
1605155775.761597,11.000000,0.000000,4081.923096,4131.153809,4143.205078,4139.615234,4161.666504,4165.897461,4105.641113,4202.820313,4215.128418,4150.128418,4153.589844,4160.897461,4073.589844,4165.512695,2383.000000,4.000000,,,,0.000000,4.000000,4.000000,4.000000,4.000000,4.000000,4.000000,4.000000,4.000000,4.000000,4.000000,4.000000,4.000000,4.000000,4.000000,100.000000,,,,,,,,,,,,,,,,,,,,,,,,,,,,,,,,,,,,,,,,,,,,,,,,,,,,,,,,,,,,,,,,,,,,,,
1605155775.769478,12.000000,0.000000,4081.794922,4171.794922,4154.358887,4171.666504,4177.051270,4173.589844,4116.666504,4206.794922,4215.897461,4155.128418,4191.282227,4170.256348,4103.846191,4181.025879,9016.000000,4.000000,,,,0.000000,4.000000,4.000000,4.000000,4.000000,4.000000,4.000000,4.000000,4.000000,4.000000,4.000000,4.000000,4.000000,4.000000,4.000000,100.000000,,,,,,,,,,,,,,,,,,,,,,,,,,,,,,,,,,,,,,,,,,,,,,,,,,,,,,,,,,,,,,,,,,,,,,
1605155775.777260,13.000000,0.000000,4086.153809,4171.410156,4159.743652,4186.153809,4183.205078,4169.615234,4119.358887,4216.794922,4224.102539,4175.256348,4206.025879,4173.077148,4117.820313,4189.615234,3129.000000,4.000000,,,,0.000000,4.000000,4.000000,4.000000,4.000000,4.000000,4.000000,4.000000,4.000000,4.000000,4.000000,4.000000,4.000000,4.000000,4.000000,100.000000,,,,,,,,,,,,,,,,,,,,,,,,,,,,,,,,,,,,,,,,,,,,,,,,,,,,,,,,,,,,,,,,,,,,,,
1605155775.785141,14.000000,0.000000,4093.076904,4139.102539,4152.051270,4165.769043,4170.256348,4157.179688,4114.230957,4215.769043,4227.563965,4171.410156,4177.051270,4166.410156,4090.897461,4182.436035,3233.000000,4.000000,,,,0.000000,4.000000,4.000000,4.000000,4.000000,4.000000,4.000000,4.000000,4.000000,4.000000,4.000000,4.000000,4.000000,4.000000,4.000000,100.000000,,,,,,,,,,,,,,,,,,,,,,,,,,,,,,,,,,,,,,,,,,,,,,,,,,,,,,,,,,,,,,,,,,,,,,
1605155775.792923,15.000000,0.000000,4100.384766,4152.948730,4156.025879,4174.487305,4171.153809,4157.563965,4119.102539,4214.358887,4221.410156,4173.333496,4187.692383,4168.717773,4077.179443,4181.666504,2383.000000,4.000000,,,,0.000000,4.000000,4.000000,4.000000,4.000000,4.000000,4.000000,4.000000,4.000000,4.000000,4.000000,4.000000,4.000000,4.000000,4.000000,100.000000,,,,,,,,,,,,,,,,,,,,,,,,,,,,,,,,,,,,,,,,,,,,,,,,,,,,,,,,,,,,,,,,,,,,,,
1605155775.800804,16.000000,0.000000,4096.282227,4177.563965,4161.538574,4191.153809,4180.256348,4165.897461,4113.846191,4215.000000,4215.769043,4180.000000,4204.230957,4167.179688,4096.794922,4181.410156,0.000000,4.000000,,,,0.000000,4.000000,4.000000,4.000000,4.000000,4.000000,4.000000,4.000000,4.000000,4.000000,4.000000,4.000000,4.000000,4.000000,4.000000,100.000000,,,,,,,,,,,,,,,,,,,,,,,,,,,,,,,,,,,,,,,,,,,,,,,,,,,,,,,,,,,,,,,,,,,,,,
1605155775.808585,17.000000,0.000000,4093.461426,4169.358887,4154.871582,4167.436035,4177.820313,4173.461426,4104.230957,4213.717773,4216.666504,4168.717773,4195.000000,4165.641113,4121.538574,4182.692383,0.000000,4.000000,,,,0.000000,4.000000,4.000000,4.000000,4.000000,4.000000,4.000000,4.000000,4.000000,4.000000,4.000000,4.000000,4.000000,4.000000,4.000000,100.000000,,,,,,,,,,,,,,,,,,,,,,,,,,,,,,,,,,,,,,,,,,,,,,,,,,,,,,,,,,,,,,,,,,,,,,
1605155775.816367,18.000000,0.000000,4104.102539,4155.128418,4153.205078,4153.846191,4175.897461,4174.230957,4113.589844,4215.256348,4218.333496,4164.487305,4193.589844,4173.077148,4119.743652,4189.102539,0.000000,4.000000,,,,0.000000,4.000000,4.000000,4.000000,4.000000,4.000000,4.000000,4.000000,4.000000,4.000000,4.000000,4.000000,4.000000,4.000000,4.000000,100.000000,,,,,,,,,,,,,,,,,,,,,,,,,,,,,,,,,,,,,,,,,,,,,,,,,,,,,,,,,,,,,,,,,,,,,,
1605155775.824249,19.000000,0.000000,4110.384766,4159.871582,4160.256348,4174.487305,4182.179688,4170.128418,4119.615234,4216.282227,4217.436035,4178.077148,4203.333496,4175.256348,4100.641113,4187.820313,0.000000,4.000000,,,,0.000000,4.000000,4.000000,4.000000,4.000000,4.000000,4.000000,4.000000,4.000000,4.000000,4.000000,4.000000,4.000000,4.000000,4.000000,100.000000,3.570931,0.927996,1.411281,1.842952,0.493781,1.094510,1.311094,0.575261,1.198884,1.175527,1.823672,0.424807,0.275521,0.824162,0.432381,0.690656,0.568208,1.198792,1.192980,2.396714,0.510198,0.687568,0.275248,0.144546,0.272625,0.669012,0.660453,0.482625,0.514607,0.329251,0.243588,0.254701,0.128057,0.182663,0.101676,0.432249,0.265979,0.137239,0.210039,0.064170,0.181758,0.081994,0.084051,0.092547,0.037174,4.013011,3.292424,0.992207,1.421238,0.857533,7.294684,3.618277,1.391146,2.092625,1.433787,2.267797,1.095227,0.496396,0.689403,0.347476,3.544332,1.386606,0.493483,1.867947,1.131622,8.434735,1.253898,1.908133,1.600644,0.654543
1605155775.832031,20.000000,0.000000,4108.974121,4175.000000,4169.871582,4188.589844,4184.487305,4175.512695,4111.922852,4215.641113,4220.897461,4190.512695,4201.794922,4170.769043,4086.794922,4183.077148,0.000000,4.000000,,,,0.000000,4.000000,4.000000,4.000000,4.000000,4.000000,4.000000,4.000000,4.000000,4.000000,4.000000,4.000000,4.000000,4.000000,4.000000,100.000000,,,,,,,,,,,,,,,,,,,,,,,,,,,,,,,,,,,,,,,,,,,,,,,,,,,,,,,,,,,,,,,,,,,,,,
1605155775.839913,21.000000,0.000000,4113.461426,4175.769043,4173.846191,4187.051270,4175.256348,4169.615234,4107.948730,4215.384766,4220.512695,4182.948730,4187.820313,4168.846191,4082.307617,4186.922852,0.000000,4.000000,,,,0.000000,4.000000,4.000000,4.000000,4.000000,4.000000,4.000000,4.000000,4.000000,4.000000,4.000000,4.000000,4.000000,4.000000,4.000000,100.000000,,,,,,,,,,,,,,,,,,,,,,,,,,,,,,,,,,,,,,,,,,,,,,,,,,,,,,,,,,,,,,,,,,,,,,
1605155775.847694,22.000000,0.000000,4128.717773,4167.692383,4177.051270,4188.333496,4170.256348,4156.410156,4109.102539,4213.205078,4217.051270,4172.051270,4200.769043,4173.333496,4096.538574,4191.025879,0.000000,4.000000,,,,0.000000,4.000000,4.000000,4.000000,4.000000,4.000000,4.000000,4.000000,4.000000,4.000000,4.000000,4.000000,4.000000,4.000000,4.000000,100.000000,,,,,,,,,,,,,,,,,,,,,,,,,,,,,,,,,,,,,,,,,,,,,,,,,,,,,,,,,,,,,,,,,,,,,,
1605155775.855576,23.000000,0.000000,4131.666504,4165.128418,4179.871582,4184.743652,4179.230957,4164.615234,4113.589844,4214.743652,4225.641113,4183.333496,4235.128418,4176.410156,4116.538574,4187.051270,0.000000,4.000000,,,,0.000000,4.000000,4.000000,4.000000,4.000000,4.000000,4.000000,4.000000,4.000000,4.000000,4.000000,4.000000,4.000000,4.000000,4.000000,100.000000,,,,,,,,,,,,,,,,,,,,,,,,,,,,,,,,,,,,,,,,,,,,,,,,,,,,,,,,,,,,,,,,,,,,,,
1605155775.863358,24.000000,0.000000,4109.102539,4172.307617,4173.077148,4188.333496,4185.512695,4179.743652,4114.102539,4214.230957,4232.051270,4195.256348,4235.512695,4175.641113,4124.615234,4184.615234,0.000000,4.000000,,,,0.000000,4.000000,4.000000,4.000000,4.000000,4.000000,4.000000,4.000000,4.000000,4.000000,4.000000,4.000000,4.000000,4.000000,4.000000,100.000000,,,,,,,,,,,,,,,,,,,,,,,,,,,,,,,,,,,,,,,,,,,,,,,,,,,,,,,,,,,,,,,,,,,,,,
1605155775.871239,25.000000,0.000000,4093.333252,4172.307617,4160.769043,4189.871582,4169.230957,4170.641113,4108.077148,4205.256348,4219.102539,4172.436035,4200.384766,4168.077148,4106.922852,4189.102539,0.000000,4.000000,,,,0.000000,4.000000,4.000000,4.000000,4.000000,4.000000,4.000000,4.000000,4.000000,4.000000,4.000000,4.000000,4.000000,4.000000,4.000000,100.000000,,,,,,,,,,,,,,,,,,,,,,,,,,,,,,,,,,,,,,,,,,,,,,,,,,,,,,,,,,,,,,,,,,,,,,
1605155775.879021,26.000000,0.000000,4104.871582,4160.512695,4149.358887,4162.179688,4155.128418,4159.230957,4106.282227,4200.256348,4209.615234,4147.307617,4170.641113,4157.820313,4078.718018,4186.153809,0.000000,4.000000,,,,0.000000,4.000000,4.000000,4.000000,4.000000,4.000000,4.000000,4.000000,4.000000,4.000000,4.000000,4.000000,4.000000,4.000000,4.000000,100.000000,,,,,,,,,,,,,,,,,,,,,,,,,,,,,,,,,,,,,,,,,,,,,,,,,,,,,,,,,,,,,,,,,,,,,,
1605155775.886803,27.000000,0.000000,4111.410156,4155.000000,4145.769043,4147.179688,4166.025879,4165.256348,4110.128418,4202.563965,4216.538574,4155.128418,4166.922852,4158.333496,4069.743652,4171.282227,0.000000,4.000000,,,,0.000000,4.000000,4.000000,4.000000,4.000000,4.000000,4.000000,4.000000,4.000000,4.000000,4.000000,4.000000,4.000000,4.000000,4.000000,100.000000,,,,,,,,,,,,,,,,,,,,,,,,,,,,,,,,,,,,,,,,,,,,,,,,,,,,,,,,,,,,,,,,,,,,,,
1605155775.894686,28.000000,0.000000,4106.282227,4158.717773,4153.846191,4166.538574,4181.025879,4172.307617,4110.512695,4204.615234,4218.461426,4169.102539,4180.128418,4168.077148,4076.153809,4168.205078,0.000000,4.000000,,,,0.000000,4.000000,4.000000,4.000000,4.000000,4.000000,4.000000,4.000000,4.000000,4.000000,4.000000,4.000000,4.000000,4.000000,4.000000,100.000000,,,,,,,,,,,,,,,,,,,,,,,,,,,,,,,,,,,,,,,,,,,,,,,,,,,,,,,,,,,,,,,,,,,,,,
1605155775.902568,29.000000,0.000000,4111.282227,4155.897461,4165.512695,4180.128418,4176.282227,4171.666504,4106.282227,4202.948730,4214.230957,4177.051270,4190.641113,4169.358887,4093.333252,4178.589844,0.000000,4.000000,,,,0.000000,4.000000,4.000000,4.000000,4.000000,4.000000,4.000000,4.000000,4.000000,4.000000,4.000000,4.000000,4.000000,4.000000,4.000000,100.000000,,,,,,,,,,,,,,,,,,,,,,,,,,,,,,,,,,,,,,,,,,,,,,,,,,,,,,,,,,,,,,,,,,,,,,
1605155775.910349,30.000000,0.000000,4114.743652,4156.922852,4168.846191,4192.563965,4162.307617,4161.538574,4106.153809,4204.487305,4215.384766,4180.641113,4197.051270,4167.051270,4107.179688,4187.563965,0.000000,4.000000,,,,0.000000,4.000000,4.000000,4.000000,4.000000,4.000000,4.000000,4.000000,4.000000,4.000000,4.000000,4.000000,4.000000,4.000000,4.000000,100.000000,,,,,,,,,,,,,,,,,,,,,,,,,,,,,,,,,,,,,,,,,,,,,,,,,,,,,,,,,,,,,,,,,,,,,,
1605155775.918131,31.000000,0.000000,4107.948730,4166.794922,4164.743652,4198.589844,4161.666504,4157.179688,4110.000000,4209.743652,4215.769043,4166.666504,4203.974121,4174.871582,4097.820313,4193.974121,0.000000,4.000000,,,,0.000000,4.000000,4.000000,4.000000,4.000000,4.000000,4.000000,4.000000,4.000000,4.000000,4.000000,4.000000,4.000000,4.000000,4.000000,100.000000,,,,,,,,,,,,,,,,,,,,,,,,,,,,,,,,,,,,,,,,,,,,,,,,,,,,,,,,,,,,,,,,,,,,,,
1605155775.925914,32.000000,0.000000,4105.897461,4155.256348,4154.487305,4157.563965,4163.717773,4164.487305,4111.025879,4206.153809,4214.358887,4146.922852,4185.769043,4170.897461,4077.820557,4188.333496,0.000000,4.000000,,,,0.000000,4.000000,4.000000,4.000000,4.000000,4.000000,4.000000,4.000000,4.000000,4.000000,4.000000,4.000000,4.000000,4.000000,4.000000,100.000000,,,,,,,,,,,,,,,,,,,,,,,,,,,,,,,,,,,,,,,,,,,,,,,,,,,,,,,,,,,,,,,,,,,,,,
1605155775.933796,33.000000,0.000000,4096.025879,4131.794922,4138.717773,4121.282227,4157.307617,4166.794922,4108.717773,4202.307617,4214.871582,4152.820313,4156.282227,4153.846191,4080.897461,4174.487305,0.000000,4.000000,,,,0.000000,4.000000,4.000000,4.000000,4.000000,4.000000,4.000000,4.000000,4.000000,4.000000,4.000000,4.000000,4.000000,4.000000,4.000000,100.000000,,,,,,,,,,,,,,,,,,,,,,,,,,,,,,,,,,,,,,,,,,,,,,,,,,,,,,,,,,,,,,,,,,,,,,
1605155775.941678,34.000000,0.000000,4080.512939,4130.512695,4138.333496,4148.846191,4156.538574,4163.333496,4109.743652,4209.230957,4217.948730,4166.538574,4171.153809,4158.717773,4092.692383,4181.025879,0.000000,4.000000,,,,0.000000,4.000000,4.000000,4.000000,4.000000,4.000000,4.000000,4.000000,4.000000,4.000000,4.000000,4.000000,4.000000,4.000000,4.000000,100.000000,,,,,,,,,,,,,,,,,,,,,,,,,,,,,,,,,,,,,,,,,,,,,,,,,,,,,,,,,,,,,,,,,,,,,,
1605155775.949460,35.000000,0.000000,4086.794922,4150.256348,4154.871582,4184.230957,4161.153809,4173.205078,4114.615234,4211.410156,4217.820313,4161.153809,4194.358887,4166.538574,4083.589844,4188.846191,0.000000,4.000000,,,,0.000000,4.000000,4.000000,4.000000,4.000000,4.000000,4.000000,4.000000,4.000000,4.000000,4.000000,4.000000,4.000000,4.000000,4.000000,100.000000,3.894201,0.723459,1.388033,1.958801,0.490941,1.158605,1.238184,0.710624,1.284204,1.179947,1.954909,0.383259,0.286077,0.908570,0.443745,0.665494,0.610816,1.291443,1.290357,2.492379,0.460694,0.576600,0.199250,0.179817,0.291132,0.610458,0.506172,0.354622,0.454244,0.341754,0.326308,0.191458,0.107390,0.198791,0.104070,0.400897,0.240207,0.116789,0.217174,0.057912,0.200727,0.077490,0.098427,0.110710,0.040563,3.312460,3.059955,0.983267,1.664415,0.824975,7.787439,3.398896,1.576783,2.366368,1.389703,2.492991,1.052597,0.457518,0.642539,0.331499,3.212422,1.377055,0.562422,1.774963,1.011160,9.282673,1.016520,1.845426,1.413071,0.633393
1605155775.957342,36.000000,0.000000,4099.615234,4159.615234,4153.717773,4169.743652,4159.615234,4187.051270,4115.384766,4202.948730,4213.974121,4157.692383,4178.077148,4150.512695,4071.281982,4170.897461,0.000000,4.000000,,,,0.000000,4.000000,4.000000,4.000000,4.000000,4.000000,4.000000,4.000000,4.000000,4.000000,4.000000,4.000000,4.000000,4.000000,4.000000,100.000000,,,,,,,,,,,,,,,,,,,,,,,,,,,,,,,,,,,,,,,,,,,,,,,,,,,,,,,,,,,,,,,,,,,,,,
1605155775.965124,37.000000,0.000000,4096.410156,4159.102539,4141.410156,4153.974121,4156.666504,4178.205078,4110.128418,4201.922852,4212.820313,4163.461426,4161.922852,4139.743652,4075.128174,4158.333496,0.000000,4.000000,,,,0.000000,4.000000,4.000000,4.000000,4.000000,4.000000,4.000000,4.000000,4.000000,4.000000,4.000000,4.000000,4.000000,4.000000,4.000000,100.000000,,,,,,,,,,,,,,,,,,,,,,,,,,,,,,,,,,,,,,,,,,,,,,,,,,,,,,,,,,,,,,,,,,,,,,
1605155775.973006,38.000000,0.000000,4090.641113,4166.025879,4145.384766,4172.948730,4162.179688,4161.922852,4105.512695,4206.025879,4214.102539,4162.948730,4177.307617,4150.897461,4086.153809,4167.179688,0.000000,4.000000,,,,0.000000,4.000000,4.000000,4.000000,4.000000,4.000000,4.000000,4.000000,4.000000,4.000000,4.000000,4.000000,4.000000,4.000000,4.000000,100.000000,,,,,,,,,,,,,,,,,,,,,,,,,,,,,,,,,,,,,,,,,,,,,,,,,,,,,,,,,,,,,,,,,,,,,,
1605155775.980788,39.000000,0.000000,4092.948730,4175.256348,4151.153809,4178.589844,4168.846191,4166.666504,4107.179688,4202.948730,4215.897461,4161.410156,4189.487305,4158.333496,4085.256348,4172.563965,0.000000,4.000000,,,,0.000000,4.000000,4.000000,4.000000,4.000000,4.000000,4.000000,4.000000,4.000000,4.000000,4.000000,4.000000,4.000000,4.000000,4.000000,100.000000,,,,,,,,,,,,,,,,,,,,,,,,,,,,,,,,,,,,,,,,,,,,,,,,,,,,,,,,,,,,,,,,,,,,,,
1605155775.988670,40.000000,0.000000,4089.230713,4170.384766,4144.615234,4160.512695,4165.128418,4175.000000,4109.358887,4201.794922,4217.307617,4160.897461,4183.077148,4151.794922,4074.102539,4169.102539,0.000000,4.000000,,,,0.000000,4.000000,4.000000,4.000000,4.000000,4.000000,4.000000,4.000000,4.000000,4.000000,4.000000,4.000000,4.000000,4.000000,4.000000,100.000000,,,,,,,,,,,,,,,,,,,,,,,,,,,,,,,,,,,,,,,,,,,,,,,,,,,,,,,,,,,,,,,,,,,,,,
1605155775.996554,41.000000,0.000000,4081.153809,4154.487305,4138.974121,4158.461426,4150.256348,4166.153809,4106.922852,4201.153809,4210.897461,4147.820313,4162.563965,4141.922852,4073.461426,4163.333496,0.000000,4.000000,,,,0.000000,4.000000,4.000000,4.000000,4.000000,4.000000,4.000000,4.000000,4.000000,4.000000,4.000000,4.000000,4.000000,4.000000,4.000000,100.000000,,,,,,,,,,,,,,,,,,,,,,,,,,,,,,,,,,,,,,,,,,,,,,,,,,,,,,,,,,,,,,,,,,,,,,
1605155776.004437,42.000000,0.000000,4081.153809,4147.051270,4135.256348,4160.128418,4141.282227,4162.820313,4107.307617,4197.051270,4207.436035,4136.666504,4152.436035,4137.179688,4081.538574,4159.102539,0.000000,4.000000,,,,0.000000,4.000000,4.000000,4.000000,4.000000,4.000000,4.000000,4.000000,4.000000,4.000000,4.000000,4.000000,4.000000,4.000000,4.000000,100.000000,,,,,,,,,,,,,,,,,,,,,,,,,,,,,,,,,,,,,,,,,,,,,,,,,,,,,,,,,,,,,,,,,,,,,,
1605155776.012321,43.000000,0.000000,4081.538574,4150.384766,4130.897461,4156.922852,4148.461426,4168.846191,4108.974121,4198.974121,4213.846191,4144.743652,4162.436035,4140.897461,4086.794922,4155.769043,0.000000,4.000000,,,,0.000000,4.000000,4.000000,4.000000,4.000000,4.000000,4.000000,4.000000,4.000000,4.000000,4.000000,4.000000,4.000000,4.000000,4.000000,100.000000,,,,,,,,,,,,,,,,,,,,,,,,,,,,,,,,,,,,,,,,,,,,,,,,,,,,,,,,,,,,,,,,,,,,,,
1605155776.020205,44.000000,0.000000,4087.307617,4152.051270,4135.641113,4160.769043,4152.307617,4161.922852,4107.307617,4199.871582,4213.461426,4148.589844,4171.794922,4144.743652,4066.794922,4152.563965,0.000000,4.000000,,,,0.000000,4.000000,4.000000,4.000000,4.000000,4.000000,4.000000,4.000000,4.000000,4.000000,4.000000,4.000000,4.000000,4.000000,4.000000,100.000000,,,,,,,,,,,,,,,,,,,,,,,,,,,,,,,,,,,,,,,,,,,,,,,,,,,,,,,,,,,,,,,,,,,,,,
1605155776.027988,45.000000,0.000000,4090.512939,4146.922852,4130.000000,4139.102539,4142.436035,4163.333496,4106.922852,4191.025879,4201.025879,4131.025879,4142.051270,4138.077148,4027.435791,4146.025879,0.000000,4.000000,,,,0.000000,4.000000,4.000000,4.000000,4.000000,4.000000,4.000000,4.000000,4.000000,4.000000,4.000000,4.000000,4.000000,4.000000,4.000000,100.000000,,,,,,,,,,,,,,,,,,,,,,,,,,,,,,,,,,,,,,,,,,,,,,,,,,,,,,,,,,,,,,,,,,,,,,
1605155776.035870,46.000000,0.000000,4070.769287,4140.384766,4116.666504,4131.794922,4138.461426,4184.615234,4110.641113,4187.051270,4199.102539,4116.025879,4113.205078,4133.461426,4038.333252,4143.077148,0.000000,4.000000,,,,0.000000,4.000000,4.000000,4.000000,4.000000,4.000000,4.000000,4.000000,4.000000,4.000000,4.000000,4.000000,4.000000,4.000000,4.000000,100.000000,,,,,,,,,,,,,,,,,,,,,,,,,,,,,,,,,,,,,,,,,,,,,,,,,,,,,,,,,,,,,,,,,,,,,,
1605155776.043653,47.000000,0.000000,4074.871826,4146.794922,4135.512695,4173.461426,4160.384766,4182.692383,4110.641113,4201.282227,4211.153809,4134.743652,4148.077148,4149.743652,4097.179688,4151.922852,0.000000,4.000000,,,,0.000000,4.000000,4.000000,4.000000,4.000000,4.000000,4.000000,4.000000,4.000000,4.000000,4.000000,4.000000,4.000000,4.000000,4.000000,100.000000,,,,,,,,,,,,,,,,,,,,,,,,,,,,,,,,,,,,,,,,,,,,,,,,,,,,,,,,,,,,,,,,,,,,,,
1605155776.051536,48.000000,0.000000,4119.358887,4165.128418,4162.948730,4183.205078,4177.948730,4165.128418,4106.025879,4212.179688,4217.436035,4167.051270,4185.256348,4160.000000,4103.717773,4155.512695,0.000000,4.000000,,,,0.000000,4.000000,4.000000,4.000000,4.000000,4.000000,4.000000,4.000000,4.000000,4.000000,4.000000,4.000000,4.000000,4.000000,4.000000,100.000000,,,,,,,,,,,,,,,,,,,,,,,,,,,,,,,,,,,,,,,,,,,,,,,,,,,,,,,,,,,,,,,,,,,,,,
1605155776.059318,49.000000,0.000000,4125.128418,4178.846191,4155.128418,4160.000000,4168.205078,4172.820313,4107.820313,4206.410156,4215.256348,4177.307617,4180.769043,4149.102539,4070.256348,4152.563965,0.000000,4.000000,,,,0.000000,4.000000,4.000000,4.000000,4.000000,4.000000,4.000000,4.000000,4.000000,4.000000,4.000000,4.000000,4.000000,4.000000,4.000000,100.000000,,,,,,,,,,,,,,,,,,,,,,,,,,,,,,,,,,,,,,,,,,,,,,,,,,,,,,,,,,,,,,,,,,,,,,
1605155776.067201,50.000000,0.000000,4093.205078,4180.256348,4140.000000,4167.563965,4164.230957,4176.153809,4109.487305,4201.025879,4213.974121,4165.769043,4179.230957,4149.871582,4075.128174,4156.282227,0.000000,4.000000,,,,0.000000,4.000000,4.000000,4.000000,4.000000,4.000000,4.000000,4.000000,4.000000,4.000000,4.000000,4.000000,4.000000,4.000000,4.000000,100.000000,,,,,,,,,,,,,,,,,,,,,,,,,,,,,,,,,,,,,,,,,,,,,,,,,,,,,,,,,,,,,,,,,,,,,,
1605155776.074984,51.000000,0.000000,4106.282227,4181.794922,4149.358887,4184.743652,4176.025879,4165.769043,4107.307617,4203.846191,4217.307617,4170.769043,4206.666504,4168.461426,4104.230957,4174.230957,0.000000,4.000000,,,,0.000000,4.000000,4.000000,4.000000,4.000000,4.000000,4.000000,4.000000,4.000000,4.000000,4.000000,4.000000,4.000000,4.000000,4.000000,100.000000,4.085705,0.585521,1.297833,2.016320,0.530400,1.263277,1.155887,0.968838,1.373936,1.141951,2.058221,0.397888,0.313034,0.975861,0.455109,0.714264,0.669572,1.414117,1.511767,2.452107,0.432918,0.477238,0.149217,0.227306,0.313777,0.496933,0.368663,0.246828,0.405112,0.352696,0.405253,0.152685,0.091558,0.210559,0.110796,0.345674,0.215020,0.106970,0.225421,0.059004,0.202356,0.071081,0.102706,0.121186,0.043162,2.818581,2.839504,1.092990,1.872033,0.790154,7.958582,3.234116,1.838927,2.687341,1.312467,2.623082,1.020831,0.435593,0.622562,0.308466,2.811295,1.338773,0.656738,1.742733,0.894387,9.802686,0.867257,1.753417,1.213900,0.619705
1605155776.082967,52.000000,0.000000,4135.256348,4176.282227,4158.461426,4181.538574,4181.410156,4175.769043,4107.563965,4204.743652,4218.461426,4187.563965,4217.820313,4173.846191,4118.461426,4194.102539,0.000000,4.000000,,,,0.000000,4.000000,4.000000,4.000000,4.000000,4.000000,4.000000,4.000000,4.000000,4.000000,4.000000,4.000000,4.000000,4.000000,4.000000,100.000000,,,,,,,,,,,,,,,,,,,,,,,,,,,,,,,,,,,,,,,,,,,,,,,,,,,,,,,,,,,,,,,,,,,,,,
1605155776.090950,53.000000,0.000000,4125.512695,4169.615234,4152.948730,4178.846191,4179.102539,4185.897461,4108.589844,4201.153809,4215.512695,4187.179688,4206.410156,4168.974121,4117.307617,4198.589844,0.000000,4.000000,,,,0.000000,4.000000,4.000000,4.000000,4.000000,4.000000,4.000000,4.000000,4.000000,4.000000,4.000000,4.000000,4.000000,4.000000,4.000000,100.000000,,,,,,,,,,,,,,,,,,,,,,,,,,,,,,,,,,,,,,,,,,,,,,,,,,,,,,,,,,,,,,,,,,,,,,
1605155776.098834,54.000000,0.000000,4116.922852,4183.589844,4151.922852,4178.974121,4177.948730,4171.794922,4107.692383,4199.230957,4215.256348,4184.871582,4210.769043,4170.256348,4119.615234,4188.974121,0.000000,4.000000,,,,0.000000,4.000000,4.000000,4.000000,4.000000,4.000000,4.000000,4.000000,4.000000,4.000000,4.000000,4.000000,4.000000,4.000000,4.000000,100.000000,,,,,,,,,,,,,,,,,,,,,,,,,,,,,,,,,,,,,,,,,,,,,,,,,,,,,,,,,,,,,,,,,,,,,,
1605155776.106817,55.000000,0.000000,4123.974121,4188.077148,4150.128418,4171.153809,4172.307617,4167.051270,4105.000000,4198.461426,4214.487305,4185.256348,4215.512695,4168.461426,4115.256348,4178.589844,0.000000,4.000000,,,,0.000000,4.000000,4.000000,4.000000,4.000000,4.000000,4.000000,4.000000,4.000000,4.000000,4.000000,4.000000,4.000000,4.000000,4.000000,100.000000,,,,,,,,,,,,,,,,,,,,,,,,,,,,,,,,,,,,,,,,,,,,,,,,,,,,,,,,,,,,,,,,,,,,,,
1605155776.114701,56.000000,0.000000,4128.077148,4172.436035,4144.102539,4167.563965,4172.436035,4173.461426,4105.256348,4197.051270,4214.358887,4181.666504,4206.153809,4166.922852,4104.871582,4180.769043,0.000000,4.000000,,,,0.000000,4.000000,4.000000,4.000000,4.000000,4.000000,4.000000,4.000000,4.000000,4.000000,4.000000,4.000000,4.000000,4.000000,4.000000,100.000000,,,,,,,,,,,,,,,,,,,,,,,,,,,,,,,,,,,,,,,,,,,,,,,,,,,,,,,,,,,,,,,,,,,,,,
1605155776.122684,57.000000,0.000000,4128.077148,4173.717773,4145.769043,4181.538574,4177.948730,4176.922852,4110.897461,4201.025879,4215.641113,4183.846191,4211.922852,4169.487305,4111.153809,4185.000000,0.000000,4.000000,,,,0.000000,4.000000,4.000000,4.000000,4.000000,4.000000,4.000000,4.000000,4.000000,4.000000,4.000000,4.000000,4.000000,4.000000,4.000000,100.000000,,,,,,,,,,,,,,,,,,,,,,,,,,,,,,,,,,,,,,,,,,,,,,,,,,,,,,,,,,,,,,,,,,,,,,
1605155776.130567,58.000000,0.000000,4133.461426,4175.769043,4149.102539,4183.461426,4170.512695,4182.820313,4111.153809,4204.743652,4213.846191,4184.487305,4211.922852,4168.589844,4113.717773,4184.358887,0.000000,4.000000,,,,0.000000,4.000000,4.000000,4.000000,4.000000,4.000000,4.000000,4.000000,4.000000,4.000000,4.000000,4.000000,4.000000,4.000000,4.000000,100.000000,,,,,,,,,,,,,,,,,,,,,,,,,,,,,,,,,,,,,,,,,,,,,,,,,,,,,,,,,,,,,,,,,,,,,,
1605155776.138550,59.000000,0.000000,4158.077148,4155.384766,4146.666504,4161.025879,4158.974121,4180.000000,4103.846191,4200.641113,4209.871582,4168.717773,4195.512695,4164.615234,4103.461426,4186.922852,0.000000,4.000000,,,,0.000000,4.000000,4.000000,4.000000,4.000000,4.000000,4.000000,4.000000,4.000000,4.000000,4.000000,4.000000,4.000000,4.000000,4.000000,100.000000,,,,,,,,,,,,,,,,,,,,,,,,,,,,,,,,,,,,,,,,,,,,,,,,,,,,,,,,,,,,,,,,,,,,,,
1605155776.146434,60.000000,0.000000,4168.974121,4149.871582,4143.333496,4166.153809,4165.000000,4172.307617,4104.871582,4197.692383,4210.641113,4163.846191,4201.025879,4169.487305,4109.487305,4189.230957,0.000000,4.000000,,,,0.000000,4.000000,4.000000,4.000000,4.000000,4.000000,4.000000,4.000000,4.000000,4.000000,4.000000,4.000000,4.000000,4.000000,4.000000,100.000000,,,,,,,,,,,,,,,,,,,,,,,,,,,,,,,,,,,,,,,,,,,,,,,,,,,,,,,,,,,,,,,,,,,,,,
1605155776.154417,61.000000,0.000000,4131.410156,4166.538574,4136.410156,4178.974121,4175.641113,4167.179688,4107.692383,4200.000000,4214.615234,4174.871582,4211.410156,4181.025879,4123.461426,4188.846191,0.000000,4.000000,,,,0.000000,4.000000,4.000000,4.000000,4.000000,4.000000,4.000000,4.000000,4.000000,4.000000,4.000000,4.000000,4.000000,4.000000,4.000000,100.000000,,,,,,,,,,,,,,,,,,,,,,,,,,,,,,,,,,,,,,,,,,,,,,,,,,,,,,,,,,,,,,,,,,,,,,
1605155776.162300,62.000000,0.000000,4098.205078,4172.563965,4125.000000,4155.769043,4172.820313,4167.563965,4105.512695,4201.794922,4214.487305,4170.512695,4187.563965,4178.333496,4113.333496,4184.615234,0.000000,4.000000,,,,0.000000,4.000000,4.000000,4.000000,4.000000,4.000000,4.000000,4.000000,4.000000,4.000000,4.000000,4.000000,4.000000,4.000000,4.000000,100.000000,,,,,,,,,,,,,,,,,,,,,,,,,,,,,,,,,,,,,,,,,,,,,,,,,,,,,,,,,,,,,,,,,,,,,,
1605155776.170283,63.000000,0.000000,4116.025879,4166.794922,4125.769043,4148.846191,4160.000000,4173.589844,4111.282227,4203.205078,4213.333496,4160.128418,4178.461426,4165.897461,4106.794922,4178.333496,0.000000,4.000000,,,,0.000000,4.000000,4.000000,4.000000,4.000000,4.000000,4.000000,4.000000,4.000000,4.000000,4.000000,4.000000,4.000000,4.000000,4.000000,100.000000,,,,,,,,,,,,,,,,,,,,,,,,,,,,,,,,,,,,,,,,,,,,,,,,,,,,,,,,,,,,,,,,,,,,,,
1605155776.178267,64.000000,0.000000,4140.641113,4167.563965,4138.974121,4174.871582,4156.538574,4177.051270,4117.948730,4205.000000,4213.846191,4162.307617,4202.563965,4167.179688,4116.666504,4176.794922,3304.000000,4.000000,,,,0.000000,4.000000,4.000000,4.000000,4.000000,4.000000,4.000000,4.000000,4.000000,4.000000,4.000000,4.000000,4.000000,4.000000,4.000000,100.000000,,,,,,,,,,,,,,,,,,,,,,,,,,,,,,,,,,,,,,,,,,,,,,,,,,,,,,,,,,,,,,,,,,,,,,
1605155776.186151,65.000000,0.000000,4139.487305,4162.692383,4142.307617,4178.333496,4162.179688,4169.487305,4104.743652,4200.897461,4213.077148,4161.153809,4198.717773,4173.077148,4114.358887,4178.974121,3382.000000,4.000000,,,,0.000000,4.000000,4.000000,4.000000,4.000000,4.000000,4.000000,4.000000,4.000000,4.000000,4.000000,4.000000,4.000000,4.000000,4.000000,100.000000,,,,,,,,,,,,,,,,,,,,,,,,,,,,,,,,,,,,,,,,,,,,,,,,,,,,,,,,,,,,,,,,,,,,,,
1605155776.194135,66.000000,0.000000,4142.563965,4143.333496,4140.256348,4161.025879,4160.641113,4161.922852,4094.487061,4196.794922,4212.948730,4151.282227,4182.179688,4168.846191,4125.000000,4180.384766,3163.000000,4.000000,,,,0.000000,4.000000,4.000000,4.000000,4.000000,4.000000,4.000000,4.000000,4.000000,4.000000,4.000000,4.000000,4.000000,4.000000,4.000000,100.000000,,,,,,,,,,,,,,,,,,,,,,,,,,,,,,,,,,,,,,,,,,,,,,,,,,,,,,,,,,,,,,,,,,,,,,
1605155776.202119,67.000000,0.000000,4165.256348,4146.282227,4144.487305,4157.436035,4162.692383,4171.025879,4111.025879,4206.538574,4216.410156,4159.230957,4212.051270,4173.717773,4142.948730,4189.743652,3537.000000,4.000000,,,,0.000000,4.000000,4.000000,4.000000,4.000000,4.000000,4.000000,4.000000,4.000000,4.000000,4.000000,4.000000,4.000000,4.000000,4.000000,100.000000,4.122646,0.486015,1.162388,2.008765,0.595959,1.383527,1.062288,1.344655,1.499263,1.086283,2.115243,0.451960,0.362868,1.024483,0.454721,0.829405,0.728731,1.572194,1.886252,2.260733,0.441983,0.398086,0.147489,0.283091,0.340594,0.395108,0.267046,0.169688,0.374288,0.356510,0.452969,0.142479,0.082051,0.213364,0.120251,0.278690,0.199811,0.111045,0.230263,0.065577,0.185466,0.068151,0.098713,0.124162,0.045917,2.467176,2.584850,1.279833,1.998851,0.763402,7.660190,3.072437,2.165514,3.063649,1.218630,2.613992,1.010867,0.449430,0.629177,0.279956,2.365128,1.243777,0.792645,1.837338,0.819102,9.794102,0.843023,1.640785,1.036176,0.611586
1605155776.210103,68.000000,0.000000,4181.666504,4180.128418,4150.256348,4172.948730,4176.153809,4184.487305,4122.692383,4214.615234,4218.589844,4184.230957,4250.769043,4188.974121,4135.769043,4203.077148,3519.000000,4.000000,,,,0.000000,4.000000,4.000000,4.000000,4.000000,4.000000,4.000000,4.000000,4.000000,4.000000,4.000000,4.000000,4.000000,4.000000,4.000000,100.000000,,,,,,,,,,,,,,,,,,,,,,,,,,,,,,,,,,,,,,,,,,,,,,,,,,,,,,,,,,,,,,,,,,,,,,
1605155776.217988,69.000000,0.000000,4174.487305,4196.538574,4154.743652,4198.717773,4180.128418,4188.077148,4108.589844,4207.179688,4216.538574,4194.487305,4248.077148,4187.948730,4127.563965,4195.512695,2528.000000,4.000000,,,,0.000000,4.000000,4.000000,4.000000,4.000000,4.000000,4.000000,4.000000,4.000000,4.000000,4.000000,4.000000,4.000000,4.000000,4.000000,100.000000,,,,,,,,,,,,,,,,,,,,,,,,,,,,,,,,,,,,,,,,,,,,,,,,,,,,,,,,,,,,,,,,,,,,,,
1605155776.225873,70.000000,0.000000,4170.256348,4179.230957,4152.692383,4192.820313,4172.051270,4180.512695,4100.000000,4198.205078,4215.769043,4183.333496,4236.922852,4179.871582,4150.256348,4186.794922,2410.000000,4.000000,,,,0.000000,4.000000,4.000000,4.000000,4.000000,4.000000,4.000000,4.000000,4.000000,4.000000,4.000000,4.000000,4.000000,4.000000,4.000000,100.000000,,,,,,,,,,,,,,,,,,,,,,,,,,,,,,,,,,,,,,,,,,,,,,,,,,,,,,,,,,,,,,,,,,,,,,
1605155776.233758,71.000000,0.000000,4194.743652,4172.179688,4156.025879,4171.538574,4173.077148,4171.794922,4114.871582,4202.563965,4215.769043,4185.128418,4258.333496,4192.051270,4179.102539,4206.282227,2054.000000,4.000000,,,,0.000000,4.000000,4.000000,4.000000,4.000000,4.000000,4.000000,4.000000,4.000000,4.000000,4.000000,4.000000,4.000000,4.000000,4.000000,100.000000,,,,,,,,,,,,,,,,,,,,,,,,,,,,,,,,,,,,,,,,,,,,,,,,,,,,,,,,,,,,,,,,,,,,,,
1605155776.241742,72.000000,1.000000,4195.534180,4167.222168,4158.141113,4174.529785,4172.115234,4173.995605,4116.153809,4204.422852,4216.175293,4187.734863,4263.312012,4196.645508,4181.645508,4211.495605,1317.000000,4.000000,,,,0.000000,4.000000,4.000000,4.000000,4.000000,4.000000,4.000000,4.000000,4.000000,4.000000,4.000000,4.000000,4.000000,4.000000,4.000000,100.000000,,,,,,,,,,,,,,,,,,,,,,,,,,,,,,,,,,,,,,,,,,,,,,,,,,,,,,,,,,,,,,,,,,,,,,
1605155776.249626,73.000000,1.000000,4196.324707,4162.265137,4160.256348,4177.521484,4171.153809,4176.196777,4117.436035,4206.282227,4216.581055,4190.341797,4268.290527,4201.239258,4184.187988,4216.709473,5145.000000,4.000000,,,,0.000000,4.000000,4.000000,4.000000,4.000000,4.000000,4.000000,4.000000,4.000000,4.000000,4.000000,4.000000,4.000000,4.000000,4.000000,100.000000,,,,,,,,,,,,,,,,,,,,,,,,,,,,,,,,,,,,,,,,,,,,,,,,,,,,,,,,,,,,,,,,,,,,,,
1605155776.257511,74.000000,1.000000,4197.115234,4157.307617,4162.371582,4180.512695,4170.192383,4178.397461,4118.717773,4208.141113,4216.987305,4192.948730,4273.269043,4205.833496,4186.730957,4221.922852,3233.000000,4.000000,,,,0.000000,4.000000,4.000000,4.000000,4.000000,4.000000,4.000000,4.000000,4.000000,4.000000,4.000000,4.000000,4.000000,4.000000,4.000000,100.000000,,,,,,,,,,,,,,,,,,,,,,,,,,,,,,,,,,,,,,,,,,,,,,,,,,,,,,,,,,,,,,,,,,,,,,
1605155776.265395,75.000000,1.000000,4197.905762,4152.350586,4164.487305,4183.504395,4169.230957,4180.598145,4120.000000,4210.000000,4217.393066,4195.555664,4278.248047,4210.427246,4189.273438,4227.136719,2383.000000,4.000000,,,,0.000000,4.000000,4.000000,4.000000,4.000000,4.000000,4.000000,4.000000,4.000000,4.000000,4.000000,4.000000,4.000000,4.000000,4.000000,100.000000,,,,,,,,,,,,,,,,,,,,,,,,,,,,,,,,,,,,,,,,,,,,,,,,,,,,,,,,,,,,,,,,,,,,,,
1605155776.273280,76.000000,1.000000,4198.696777,4147.393066,4166.602539,4186.495605,4168.269043,4182.799316,4121.282227,4211.858887,4217.799316,4198.162598,4283.226563,4215.021484,4191.816406,4232.350586,9016.000000,4.000000,,,,0.000000,4.000000,4.000000,4.000000,4.000000,4.000000,4.000000,4.000000,4.000000,4.000000,4.000000,4.000000,4.000000,4.000000,4.000000,100.000000,,,,,,,,,,,,,,,,,,,,,,,,,,,,,,,,,,,,,,,,,,,,,,,,,,,,,,,,,,,,,,,,,,,,,,
1605155776.281164,77.000000,0.000000,4199.487305,4142.436035,4168.717773,4189.487305,4167.307617,4185.000000,4122.563965,4213.717773,4218.205078,4200.769043,4288.205078,4219.615234,4194.358887,4237.563965,3130.000000,4.000000,,,,0.000000,4.000000,4.000000,4.000000,4.000000,4.000000,4.000000,4.000000,4.000000,4.000000,4.000000,4.000000,4.000000,4.000000,4.000000,100.000000,,,,,,,,,,,,,,,,,,,,,,,,,,,,,,,,,,,,,,,,,,,,,,,,,,,,,,,,,,,,,,,,,,,,,,
1605155776.288949,78.000000,0.000000,4190.512695,4130.641113,4155.641113,4164.871582,4168.205078,4188.461426,4122.179688,4211.794922,4217.692383,4204.102539,4278.461426,4221.025879,4196.794922,4225.769043,3202.000000,4.000000,,,,0.000000,4.000000,4.000000,4.000000,4.000000,4.000000,4.000000,4.000000,4.000000,4.000000,4.000000,4.000000,4.000000,4.000000,4.000000,100.000000,,,,,,,,,,,,,,,,,,,,,,,,,,,,,,,,,,,,,,,,,,,,,,,,,,,,,,,,,,,,,,,,,,,,,,
1605155776.296936,79.000000,0.000000,4177.563965,4133.589844,4148.717773,4155.384766,4166.922852,4183.974121,4116.410156,4214.615234,4216.666504,4217.563965,4271.282227,4212.307617,4204.358887,4211.922852,2389.000000,4.000000,,,,0.000000,4.000000,4.000000,4.000000,4.000000,4.000000,4.000000,4.000000,4.000000,4.000000,4.000000,4.000000,4.000000,4.000000,4.000000,100.000000,,,,,,,,,,,,,,,,,,,,,,,,,,,,,,,,,,,,,,,,,,,,,,,,,,,,,,,,,,,,,,,,,,,,,,
1605155776.304823,80.000000,0.000000,4164.487305,4145.897461,4151.794922,4165.256348,4164.871582,4178.205078,4116.153809,4214.743652,4218.717773,4221.153809,4269.358887,4202.948730,4205.897461,4212.307617,9631.000000,4.000000,,,,0.000000,4.000000,4.000000,4.000000,4.000000,4.000000,4.000000,4.000000,4.000000,4.000000,4.000000,4.000000,4.000000,4.000000,4.000000,100.000000,,,,,,,,,,,,,,,,,,,,,,,,,,,,,,,,,,,,,,,,,,,,,,,,,,,,,,,,,,,,,,,,,,,,,,
1605155776.312710,81.000000,0.000000,4142.948730,4138.974121,4146.410156,4165.897461,4160.641113,4179.358887,4125.000000,4212.436035,4217.436035,4205.128418,4253.717773,4201.153809,4196.153809,4214.871582,3130.000000,4.000000,,,,0.000000,4.000000,4.000000,4.000000,4.000000,4.000000,4.000000,4.000000,4.000000,4.000000,4.000000,4.000000,4.000000,4.000000,4.000000,100.000000,,,,,,,,,,,,,,,,,,,,,,,,,,,,,,,,,,,,,,,,,,,,,,,,,,,,,,,,,,,,,,,,,,,,,,
1605155776.320597,82.000000,0.000000,4148.205078,4121.025879,4145.384766,4157.436035,4160.256348,4179.358887,4125.512695,4214.230957,4214.743652,4195.128418,4245.897461,4204.230957,4189.615234,4218.846191,3202.000000,4.000000,,,,0.000000,4.000000,4.000000,4.000000,4.000000,4.000000,4.000000,4.000000,4.000000,4.000000,4.000000,4.000000,4.000000,4.000000,4.000000,100.000000,,,,,,,,,,,,,,,,,,,,,,,,,,,,,,,,,,,,,,,,,,,,,,,,,,,,,,,,,,,,,,,,,,,,,,
1605155776.328485,83.000000,0.000000,4170.512695,4112.948730,4152.563965,4143.974121,4158.846191,4184.743652,4115.769043,4214.615234,4214.358887,4196.282227,4241.922852,4202.051270,4191.282227,4213.333496,2389.000000,4.000000,,,,0.000000,4.000000,4.000000,4.000000,4.000000,4.000000,4.000000,4.000000,4.000000,4.000000,4.000000,4.000000,4.000000,4.000000,4.000000,100.000000,4.039379,0.413458,1.025806,1.955105,0.670550,1.530143,1.001826,1.762793,1.661428,1.041050,2.126472,0.542375,0.445313,1.057829,0.438329,0.996727,0.787427,1.742987,2.381028,1.968252,0.494329,0.351779,0.195692,0.338027,0.372179,0.312359,0.205658,0.129146,0.362347,0.353480,0.453803,0.154348,0.078870,0.204453,0.130877,0.216307,0.201869,0.128048,0.226284,0.076643,0.156869,0.073882,0.091949,0.121920,0.051135,2.260547,2.299818,1.454168,2.011833,0.754319,7.073750,2.948384,2.510316,3.451202,1.150721,2.483316,1.026742,0.500319,0.646048,0.253004,1.984331,1.110138,0.985744,2.059619,0.823609,9.176110,0.921658,1.511169,0.891329,0.604851
1605155776.336372,84.000000,0.000000,4151.666504,4115.512695,4139.871582,4140.256348,4150.512695,4187.820313,4111.282227,4206.922852,4214.615234,4180.256348,4209.230957,4185.128418,4179.230957,4189.358887,9631.000000,4.000000,,,,0.000000,4.000000,4.000000,4.000000,4.000000,4.000000,4.000000,4.000000,4.000000,4.000000,4.000000,4.000000,4.000000,4.000000,4.000000,100.000000,,,,,,,,,,,,,,,,,,,,,,,,,,,,,,,,,,,,,,,,,,,,,,,,,,,,,,,,,,,,,,,,,,,,,,
1605155776.344356,85.000000,0.000000,4115.000000,4126.794922,4126.922852,4165.000000,4143.846191,4170.769043,4114.358887,4200.384766,4209.230957,4153.717773,4179.871582,4169.230957,4161.538574,4175.384766,3130.000000,4.000000,,,,0.000000,4.000000,4.000000,4.000000,4.000000,4.000000,4.000000,4.000000,4.000000,4.000000,4.000000,4.000000,4.000000,4.000000,4.000000,100.000000,,,,,,,,,,,,,,,,,,,,,,,,,,,,,,,,,,,,,,,,,,,,,,,,,,,,,,,,,,,,,,,,,,,,,,
1605155776.352241,86.000000,0.000000,4122.692383,4126.666504,4139.743652,4171.666504,4139.743652,4162.436035,4117.563965,4201.922852,4202.563965,4142.051270,4181.410156,4168.205078,4165.897461,4182.307617,3202.000000,4.000000,,,,0.000000,4.000000,4.000000,4.000000,4.000000,4.000000,4.000000,4.000000,4.000000,4.000000,4.000000,4.000000,4.000000,4.000000,4.000000,100.000000,,,,,,,,,,,,,,,,,,,,,,,,,,,,,,,,,,,,,,,,,,,,,,,,,,,,,,,,,,,,,,,,,,,,,,
1605155776.360226,87.000000,0.000000,4139.743652,4108.205078,4139.615234,4137.820313,4141.794922,4179.743652,4121.282227,4203.717773,4208.205078,4146.794922,4187.179688,4171.282227,4177.051270,4189.743652,2389.000000,4.000000,,,,0.000000,4.000000,4.000000,4.000000,4.000000,4.000000,4.000000,4.000000,4.000000,4.000000,4.000000,4.000000,4.000000,4.000000,4.000000,100.000000,,,,,,,,,,,,,,,,,,,,,,,,,,,,,,,,,,,,,,,,,,,,,,,,,,,,,,,,,,,,,,,,,,,,,,
1605155776.368110,88.000000,1.000000,4135.512695,4108.119629,4139.166504,4141.068359,4140.939941,4179.230957,4120.213867,4203.312012,4209.358887,4148.910156,4186.453125,4171.260742,4176.794922,4187.799316,2512.500000,4.000000,,,,0.000000,4.000000,4.000000,4.000000,4.000000,4.000000,4.000000,4.000000,4.000000,4.000000,4.000000,4.000000,4.000000,4.000000,4.000000,100.000000,,,,,,,,,,,,,,,,,,,,,,,,,,,,,,,,,,,,,,,,,,,,,,,,,,,,,,,,,,,,,,,,,,,,,,
1605155776.375995,89.000000,1.000000,4131.282227,4108.034180,4138.717773,4144.316406,4140.085449,4178.717773,4119.145508,4202.905762,4210.512695,4151.025879,4185.726563,4171.239258,4176.538574,4185.854492,2636.000000,4.000000,,,,0.000000,4.000000,4.000000,4.000000,4.000000,4.000000,4.000000,4.000000,4.000000,4.000000,4.000000,4.000000,4.000000,4.000000,4.000000,100.000000,,,,,,,,,,,,,,,,,,,,,,,,,,,,,,,,,,,,,,,,,,,,,,,,,,,,,,,,,,,,,,,,,,,,,,
1605155776.383880,90.000000,1.000000,4127.051270,4107.948730,4138.269043,4147.563965,4139.230957,4178.205078,4118.077148,4202.500000,4211.666504,4153.141113,4185.000000,4171.217773,4176.282227,4183.910156,2759.500000,4.000000,,,,0.000000,4.000000,4.000000,4.000000,4.000000,4.000000,4.000000,4.000000,4.000000,4.000000,4.000000,4.000000,4.000000,4.000000,4.000000,100.000000,,,,,,,,,,,,,,,,,,,,,,,,,,,,,,,,,,,,,,,,,,,,,,,,,,,,,,,,,,,,,,,,,,,,,,
1605155776.391765,91.000000,1.000000,4122.820313,4107.863281,4137.820313,4150.812012,4138.375977,4177.692383,4117.008789,4202.094238,4212.820313,4155.256348,4184.273438,4171.196777,4176.025879,4181.965820,2883.000000,4.000000,,,,0.000000,4.000000,4.000000,4.000000,4.000000,4.000000,4.000000,4.000000,4.000000,4.000000,4.000000,4.000000,4.000000,4.000000,4.000000,100.000000,,,,,,,,,,,,,,,,,,,,,,,,,,,,,,,,,,,,,,,,,,,,,,,,,,,,,,,,,,,,,,,,,,,,,,
1605155776.399649,92.000000,1.000000,4118.589844,4107.777832,4137.371582,4154.060059,4137.521484,4177.179688,4115.939941,4201.687988,4213.974121,4157.371582,4183.546875,4171.175293,4175.769043,4180.021484,3006.500000,4.000000,,,,0.000000,4.000000,4.000000,4.000000,4.000000,4.000000,4.000000,4.000000,4.000000,4.000000,4.000000,4.000000,4.000000,4.000000,4.000000,100.000000,,,,,,,,,,,,,,,,,,,,,,,,,,,,,,,,,,,,,,,,,,,,,,,,,,,,,,,,,,,,,,,,,,,,,,
1605155776.407534,93.000000,0.000000,4114.358887,4107.692383,4136.922852,4157.307617,4136.666504,4176.666504,4114.871582,4201.282227,4215.128418,4159.487305,4182.820313,4171.153809,4175.512695,4178.077148,3130.000000,4.000000,,,,0.000000,4.000000,4.000000,4.000000,4.000000,4.000000,4.000000,4.000000,4.000000,4.000000,4.000000,4.000000,4.000000,4.000000,4.000000,100.000000,,,,,,,,,,,,,,,,,,,,,,,,,,,,,,,,,,,,,,,,,,,,,,,,,,,,,,,,,,,,,,,,,,,,,,
1605155776.415419,94.000000,0.000000,4101.153809,4104.102539,4126.922852,4130.897461,4138.717773,4187.692383,4112.436035,4197.563965,4211.153809,4134.102539,4157.179688,4163.717773,4168.589844,4177.051270,3202.000000,4.000000,,,,0.000000,4.000000,4.000000,4.000000,4.000000,4.000000,4.000000,4.000000,4.000000,4.000000,4.000000,4.000000,4.000000,4.000000,4.000000,100.000000,,,,,,,,,,,,,,,,,,,,,,,,,,,,,,,,,,,,,,,,,,,,,,,,,,,,,,,,,,,,,,,,,,,,,,
1605155776.423200,95.000000,0.000000,4110.769043,4123.077148,4135.897461,4141.794922,4142.692383,4175.769043,4106.922852,4198.077148,4211.410156,4145.256348,4172.820313,4165.000000,4170.769043,4182.179688,2389.000000,4.000000,,,,0.000000,4.000000,4.000000,4.000000,4.000000,4.000000,4.000000,4.000000,4.000000,4.000000,4.000000,4.000000,4.000000,4.000000,4.000000,100.000000,,,,,,,,,,,,,,,,,,,,,,,,,,,,,,,,,,,,,,,,,,,,,,,,,,,,,,,,,,,,,,,,,,,,,,
1605155776.430982,96.000000,0.000000,4123.333496,4127.820313,4143.205078,4151.153809,4140.897461,4165.384766,4111.282227,4201.794922,4212.820313,4171.794922,4198.077148,4173.333496,4190.769043,4183.333496,9631.000000,4.000000,,,,0.000000,4.000000,4.000000,4.000000,4.000000,4.000000,4.000000,4.000000,4.000000,4.000000,4.000000,4.000000,4.000000,4.000000,4.000000,100.000000,,,,,,,,,,,,,,,,,,,,,,,,,,,,,,,,,,,,,,,,,,,,,,,,,,,,,,,,,,,,,,,,,,,,,,
1605155776.438864,97.000000,0.000000,4120.256348,4114.615234,4140.000000,4148.205078,4133.974121,4177.051270,4118.974121,4202.692383,4210.128418,4163.205078,4188.846191,4169.871582,4196.794922,4174.743652,3130.000000,4.000000,,,,0.000000,4.000000,4.000000,4.000000,4.000000,4.000000,4.000000,4.000000,4.000000,4.000000,4.000000,4.000000,4.000000,4.000000,4.000000,100.000000,,,,,,,,,,,,,,,,,,,,,,,,,,,,,,,,,,,,,,,,,,,,,,,,,,,,,,,,,,,,,,,,,,,,,,
1605155776.446646,98.000000,0.000000,4119.230957,4124.102539,4144.615234,4161.025879,4129.743652,4184.743652,4122.563965,4202.692383,4212.436035,4154.871582,4183.205078,4163.461426,4176.025879,4171.410156,3202.000000,4.000000,,,,0.000000,4.000000,4.000000,4.000000,4.000000,4.000000,4.000000,4.000000,4.000000,4.000000,4.000000,4.000000,4.000000,4.000000,4.000000,100.000000,,,,,,,,,,,,,,,,,,,,,,,,,,,,,,,,,,,,,,,,,,,,,,,,,,,,,,,,,,,,,,,,,,,,,,
1605155776.454528,99.000000,0.000000,4129.487305,4134.871582,4148.077148,4170.128418,4131.410156,4176.794922,4120.128418,4203.077148,4217.436035,4171.538574,4208.846191,4175.000000,4180.256348,4186.794922,2389.000000,4.000000,,,,0.000000,4.000000,4.000000,4.000000,4.000000,4.000000,4.000000,4.000000,4.000000,4.000000,4.000000,4.000000,4.000000,4.000000,4.000000,100.000000,3.873725,0.358205,0.946945,1.875206,0.746109,1.712745,1.038092,2.103174,1.830464,1.020477,2.139629,0.655087,0.558975,1.074255,0.411275,1.205160,0.848100,1.866367,2.889818,1.671097,0.603969,0.341980,0.281422,0.381799,0.408551,0.275178,0.179050,0.129733,0.369094,0.348369,0.406070,0.174212,0.079271,0.185285,0.141774,0.169352,0.221947,0.151978,0.210191,0.091428,0.126324,0.090430,0.088287,0.117332,0.060911,2.301301,1.979845,1.534684,1.907022,0.768217,6.527357,2.865806,2.798572,3.757437,1.154356,2.281321,1.039935,0.571717,0.650025,0.237068,1.830497,0.976789,1.231552,2.355723,0.927057,8.157980,1.018877,1.377581,0.778050,0.592544
1605155776.462309,100.000000,0.000000,4146.282227,4119.743652,4151.410156,4162.692383,4136.410156,4172.179688,4117.051270,4205.512695,4215.000000,4182.179688,4227.948730,4185.512695,4207.692383,4199.743652,9631.000000,4.000000,,,,0.000000,4.000000,4.000000,4.000000,4.000000,4.000000,4.000000,4.000000,4.000000,4.000000,4.000000,4.000000,4.000000,4.000000,4.000000,100.000000,,,,,,,,,,,,,,,,,,,,,,,,,,,,,,,,,,,,,,,,,,,,,,,,,,,,,,,,,,,,,,,,,,,,,,
1605155776.470191,101.000000,0.000000,4147.563965,4120.256348,4158.205078,4157.051270,4139.871582,4182.692383,4122.948730,4206.410156,4213.205078,4174.871582,4223.974121,4177.051270,4201.153809,4191.794922,3130.000000,4.000000,,,,0.000000,4.000000,4.000000,4.000000,4.000000,4.000000,4.000000,4.000000,4.000000,4.000000,4.000000,4.000000,4.000000,4.000000,4.000000,100.000000,,,,,,,,,,,,,,,,,,,,,,,,,,,,,,,,,,,,,,,,,,,,,,,,,,,,,,,,,,,,,,,,,,,,,,
1605155776.477973,102.000000,0.000000,4136.794922,4128.077148,4150.128418,4153.461426,4127.436035,4180.000000,4118.589844,4200.769043,4212.820313,4154.487305,4190.128418,4162.948730,4175.897461,4176.538574,3202.000000,4.000000,,,,0.000000,4.000000,4.000000,4.000000,4.000000,4.000000,4.000000,4.000000,4.000000,4.000000,4.000000,4.000000,4.000000,4.000000,4.000000,100.000000,,,,,,,,,,,,,,,,,,,,,,,,,,,,,,,,,,,,,,,,,,,,,,,,,,,,,,,,,,,,,,,,,,,,,,
1605155776.485854,103.000000,0.000000,4170.256348,4111.666504,4152.436035,4147.692383,4117.179688,4158.846191,4105.512695,4201.666504,4211.153809,4144.102539,4181.794922,4170.000000,4185.897461,4186.922852,2389.000000,4.000000,,,,0.000000,4.000000,4.000000,4.000000,4.000000,4.000000,4.000000,4.000000,4.000000,4.000000,4.000000,4.000000,4.000000,4.000000,4.000000,100.000000,,,,,,,,,,,,,,,,,,,,,,,,,,,,,,,,,,,,,,,,,,,,,,,,,,,,,,,,,,,,,,,,,,,,,,
1605155776.493636,104.000000,0.000000,4225.128418,4124.358887,4186.410156,4152.179688,4129.102539,4164.358887,4117.563965,4218.077148,4219.615234,4175.769043,4252.820313,4196.922852,4210.000000,4216.666504,9631.000000,4.000000,,,,0.000000,4.000000,4.000000,4.000000,4.000000,4.000000,4.000000,4.000000,4.000000,4.000000,4.000000,4.000000,4.000000,4.000000,4.000000,100.000000,,,,,,,,,,,,,,,,,,,,,,,,,,,,,,,,,,,,,,,,,,,,,,,,,,,,,,,,,,,,,,,,,,,,,,
1605155776.501518,105.000000,0.000000,4207.563965,4149.871582,4189.358887,4154.871582,4140.128418,4190.000000,4130.897461,4220.512695,4219.102539,4193.846191,4286.666504,4206.794922,4213.333496,4224.230957,3130.000000,4.000000,,,,0.000000,4.000000,4.000000,4.000000,4.000000,4.000000,4.000000,4.000000,4.000000,4.000000,4.000000,4.000000,4.000000,4.000000,4.000000,100.000000,,,,,,,,,,,,,,,,,,,,,,,,,,,,,,,,,,,,,,,,,,,,,,,,,,,,,,,,,,,,,,,,,,,,,,
1605155776.509299,106.000000,0.000000,4156.025879,4128.077148,4155.512695,4155.897461,4139.871582,4183.846191,4112.820313,4200.512695,4206.025879,4157.820313,4226.666504,4188.974121,4198.205078,4207.051270,3202.000000,4.000000,,,,0.000000,4.000000,4.000000,4.000000,4.000000,4.000000,4.000000,4.000000,4.000000,4.000000,4.000000,4.000000,4.000000,4.000000,4.000000,100.000000,,,,,,,,,,,,,,,,,,,,,,,,,,,,,,,,,,,,,,,,,,,,,,,,,,,,,,,,,,,,,,,,,,,,,,
1605155776.517181,107.000000,0.000000,4152.436035,4116.410156,4151.153809,4165.769043,4143.717773,4163.846191,4101.025879,4194.230957,4206.410156,4145.256348,4193.205078,4172.051270,4181.282227,4188.717773,2389.000000,4.000000,,,,0.000000,4.000000,4.000000,4.000000,4.000000,4.000000,4.000000,4.000000,4.000000,4.000000,4.000000,4.000000,4.000000,4.000000,4.000000,100.000000,,,,,,,,,,,,,,,,,,,,,,,,,,,,,,,,,,,,,,,,,,,,,,,,,,,,,,,,,,,,,,,,,,,,,,
1605155776.524962,108.000000,0.000000,4147.051270,4135.897461,4156.666504,4167.051270,4146.153809,4172.179688,4117.692383,4206.025879,4214.871582,4177.820313,4220.641113,4172.051270,4177.692383,4179.615234,9631.000000,4.000000,,,,0.000000,4.000000,4.000000,4.000000,4.000000,4.000000,4.000000,4.000000,4.000000,4.000000,4.000000,4.000000,4.000000,4.000000,4.000000,100.000000,,,,,,,,,,,,,,,,,,,,,,,,,,,,,,,,,,,,,,,,,,,,,,,,,,,,,,,,,,,,,,,,,,,,,,
1605155776.532844,109.000000,0.000000,4121.025879,4125.512695,4141.666504,4152.563965,4144.230957,4188.461426,4124.743652,4208.461426,4215.384766,4186.153809,4220.128418,4173.077148,4188.205078,4173.717773,3130.000000,4.000000,,,,0.000000,4.000000,4.000000,4.000000,4.000000,4.000000,4.000000,4.000000,4.000000,4.000000,4.000000,4.000000,4.000000,4.000000,4.000000,100.000000,,,,,,,,,,,,,,,,,,,,,,,,,,,,,,,,,,,,,,,,,,,,,,,,,,,,,,,,,,,,,,,,,,,,,,
1605155776.540625,110.000000,0.000000,4131.025879,4112.948730,4139.358887,4138.461426,4147.051270,4181.922852,4112.436035,4202.051270,4215.256348,4165.256348,4208.974121,4168.846191,4204.743652,4171.666504,3202.000000,4.000000,,,,0.000000,4.000000,4.000000,4.000000,4.000000,4.000000,4.000000,4.000000,4.000000,4.000000,4.000000,4.000000,4.000000,4.000000,4.000000,100.000000,,,,,,,,,,,,,,,,,,,,,,,,,,,,,,,,,,,,,,,,,,,,,,,,,,,,,,,,,,,,,,,,,,,,,,
1605155776.548507,111.000000,0.000000,4150.384766,4135.000000,4151.922852,4149.743652,4149.358887,4171.153809,4111.153809,4201.410156,4217.692383,4166.282227,4227.948730,4169.743652,4209.615234,4172.563965,2389.000000,4.000000,,,,0.000000,4.000000,4.000000,4.000000,4.000000,4.000000,4.000000,4.000000,4.000000,4.000000,4.000000,4.000000,4.000000,4.000000,4.000000,100.000000,,,,,,,,,,,,,,,,,,,,,,,,,,,,,,,,,,,,,,,,,,,,,,,,,,,,,,,,,,,,,,,,,,,,,,
1605155776.556288,112.000000,0.000000,4140.512695,4134.230957,4148.974121,4170.384766,4143.717773,4172.948730,4116.794922,4203.333496,4215.769043,4178.333496,4238.461426,4168.205078,4192.692383,4167.820313,9631.000000,4.000000,,,,0.000000,4.000000,4.000000,4.000000,4.000000,4.000000,4.000000,4.000000,4.000000,4.000000,4.000000,4.000000,4.000000,4.000000,4.000000,100.000000,,,,,,,,,,,,,,,,,,,,,,,,,,,,,,,,,,,,,,,,,,,,,,,,,,,,,,,,,,,,,,,,,,,,,,
1605155776.564169,113.000000,0.000000,4131.282227,4119.487305,4142.692383,4168.717773,4143.077148,4179.871582,4112.692383,4201.538574,4214.615234,4168.974121,4225.897461,4163.461426,4176.025879,4168.205078,3130.000000,4.000000,,,,0.000000,4.000000,4.000000,4.000000,4.000000,4.000000,4.000000,4.000000,4.000000,4.000000,4.000000,4.000000,4.000000,4.000000,4.000000,100.000000,,,,,,,,,,,,,,,,,,,,,,,,,,,,,,,,,,,,,,,,,,,,,,,,,,,,,,,,,,,,,,,,,,,,,,
1605155776.571951,114.000000,0.000000,4130.000000,4127.563965,4143.974121,4156.922852,4147.563965,4178.717773,4107.307617,4198.077148,4213.205078,4150.769043,4215.641113,4164.743652,4179.102539,4175.384766,3202.000000,4.000000,,,,0.000000,4.000000,4.000000,4.000000,4.000000,4.000000,4.000000,4.000000,4.000000,4.000000,4.000000,4.000000,4.000000,4.000000,4.000000,100.000000,,,,,,,,,,,,,,,,,,,,,,,,,,,,,,,,,,,,,,,,,,,,,,,,,,,,,,,,,,,,,,,,,,,,,,
1605155776.579832,115.000000,0.000000,4128.333496,4133.333496,4142.692383,4155.128418,4147.820313,4173.846191,4108.589844,4197.692383,4209.743652,4149.230957,4216.794922,4167.948730,4185.769043,4167.692383,2389.000000,4.000000,,,,0.000000,4.000000,4.000000,4.000000,4.000000,4.000000,4.000000,4.000000,4.000000,4.000000,4.000000,4.000000,4.000000,4.000000,4.000000,100.000000,3.878455,0.326390,0.979506,1.785774,0.826404,1.934524,1.211226,2.264002,1.962129,1.017176,2.237701,0.754770,0.691920,1.065575,0.384389,1.467119,0.900365,1.884478,3.275118,1.463101,0.778369,0.368648,0.386220,0.406250,0.445086,0.264198,0.179917,0.166882,0.396824,0.348141,0.333901,0.189139,0.078679,0.161536,0.153402,0.150077,0.254194,0.177031,0.183898,0.108301,0.105433,0.115259,0.091178,0.111830,0.075166,2.831372,1.675125,1.528714,1.711511,0.800323,6.726869,2.779209,2.998323,3.882128,1.248336,2.154445,1.004000,0.641789,0.624268,0.237984,2.120728,0.872518,1.501732,2.633696,1.111313,7.033325,1.059927,1.268808,0.695002,0.569182
1605155776.587613,116.000000,0.000000,4139.358887,4115.769043,4143.333496,4142.692383,4144.358887,4169.102539,4107.563965,4200.000000,4212.051270,4157.307617,4211.282227,4165.897461,4188.333496,4150.897461,9631.000000,4.000000,,,,0.000000,4.000000,4.000000,4.000000,4.000000,4.000000,4.000000,4.000000,4.000000,4.000000,4.000000,4.000000,4.000000,4.000000,4.000000,100.000000,,,,,,,,,,,,,,,,,,,,,,,,,,,,,,,,,,,,,,,,,,,,,,,,,,,,,,,,,,,,,,,,,,,,,,
1605155776.595494,117.000000,0.000000,4155.128418,4106.538574,4153.077148,4136.794922,4149.102539,4167.436035,4105.897461,4201.025879,4215.384766,4161.153809,4219.230957,4170.256348,4203.461426,4149.743652,3130.000000,4.000000,,,,0.000000,4.000000,4.000000,4.000000,4.000000,4.000000,4.000000,4.000000,4.000000,4.000000,4.000000,4.000000,4.000000,4.000000,4.000000,100.000000,,,,,,,,,,,,,,,,,,,,,,,,,,,,,,,,,,,,,,,,,,,,,,,,,,,,,,,,,,,,,,,,,,,,,,
1605155776.603276,118.000000,0.000000,4145.512695,4135.512695,4158.717773,4164.871582,4159.230957,4180.897461,4115.769043,4202.051270,4217.692383,4174.230957,4250.256348,4176.794922,4200.897461,4155.512695,3202.000000,4.000000,,,,0.000000,4.000000,4.000000,4.000000,4.000000,4.000000,4.000000,4.000000,4.000000,4.000000,4.000000,4.000000,4.000000,4.000000,4.000000,100.000000,,,,,,,,,,,,,,,,,,,,,,,,,,,,,,,,,,,,,,,,,,,,,,,,,,,,,,,,,,,,,,,,,,,,,,
1605155776.611157,119.000000,0.000000,4117.051270,4152.307617,4147.051270,4177.820313,4161.410156,4190.897461,4122.179688,4204.358887,4216.794922,4185.256348,4248.077148,4168.846191,4181.153809,4148.333496,2389.000000,4.000000,,,,0.000000,4.000000,4.000000,4.000000,4.000000,4.000000,4.000000,4.000000,4.000000,4.000000,4.000000,4.000000,4.000000,4.000000,4.000000,100.000000,,,,,,,,,,,,,,,,,,,,,,,,,,,,,,,,,,,,,,,,,,,,,,,,,,,,,,,,,,,,,,,,,,,,,,
1605155776.618938,120.000000,0.000000,4109.615234,4132.820313,4136.025879,4158.846191,4156.410156,4178.589844,4115.128418,4203.333496,4212.179688,4178.974121,4219.743652,4162.563965,4179.871582,4150.384766,9631.000000,4.000000,,,,0.000000,4.000000,4.000000,4.000000,4.000000,4.000000,4.000000,4.000000,4.000000,4.000000,4.000000,4.000000,4.000000,4.000000,4.000000,100.000000,,,,,,,,,,,,,,,,,,,,,,,,,,,,,,,,,,,,,,,,,,,,,,,,,,,,,,,,,,,,,,,,,,,,,,
1605155776.626819,121.000000,0.000000,4118.589844,4135.256348,4142.051270,4161.794922,4152.563965,4170.000000,4110.769043,4200.384766,4209.358887,4174.487305,4227.051270,4168.461426,4195.000000,4169.615234,3130.000000,4.000000,,,,0.000000,4.000000,4.000000,4.000000,4.000000,4.000000,4.000000,4.000000,4.000000,4.000000,4.000000,4.000000,4.000000,4.000000,4.000000,100.000000,,,,,,,,,,,,,,,,,,,,,,,,,,,,,,,,,,,,,,,,,,,,,,,,,,,,,,,,,,,,,,,,,,,,,,
1605155776.634600,122.000000,0.000000,4116.153809,4150.769043,4144.102539,4179.487305,4146.794922,4171.794922,4113.589844,4199.615234,4209.230957,4174.487305,4234.358887,4169.230957,4191.794922,4175.384766,3202.000000,4.000000,,,,0.000000,4.000000,4.000000,4.000000,4.000000,4.000000,4.000000,4.000000,4.000000,4.000000,4.000000,4.000000,4.000000,4.000000,4.000000,100.000000,,,,,,,,,,,,,,,,,,,,,,,,,,,,,,,,,,,,,,,,,,,,,,,,,,,,,,,,,,,,,,,,,,,,,,
1605155776.642382,123.000000,0.000000,4120.128418,4129.871582,4137.563965,4166.922852,4148.589844,4171.538574,4118.205078,4203.205078,4210.897461,4166.282227,4223.461426,4172.820313,4181.666504,4176.922852,2389.000000,4.000000,,,,0.000000,4.000000,4.000000,4.000000,4.000000,4.000000,4.000000,4.000000,4.000000,4.000000,4.000000,4.000000,4.000000,4.000000,4.000000,100.000000,,,,,,,,,,,,,,,,,,,,,,,,,,,,,,,,,,,,,,,,,,,,,,,,,,,,,,,,,,,,,,,,,,,,,,
1605155776.650264,124.000000,0.000000,4133.589844,4120.512695,4141.153809,4155.897461,4155.769043,4168.846191,4119.102539,4205.000000,4215.384766,4157.436035,4236.410156,4188.717773,4198.077148,4186.282227,9631.000000,4.000000,,,,0.000000,4.000000,4.000000,4.000000,4.000000,4.000000,4.000000,4.000000,4.000000,4.000000,4.000000,4.000000,4.000000,4.000000,4.000000,100.000000,,,,,,,,,,,,,,,,,,,,,,,,,,,,,,,,,,,,,,,,,,,,,,,,,,,,,,,,,,,,,,,,,,,,,,
1605155776.658046,125.000000,0.000000,4124.743652,4137.948730,4140.512695,4160.384766,4150.641113,4173.717773,4121.025879,4202.692383,4216.410156,4153.461426,4232.179688,4184.871582,4189.615234,4179.230957,3130.000000,4.000000,,,,0.000000,4.000000,4.000000,4.000000,4.000000,4.000000,4.000000,4.000000,4.000000,4.000000,4.000000,4.000000,4.000000,4.000000,4.000000,100.000000,,,,,,,,,,,,,,,,,,,,,,,,,,,,,,,,,,,,,,,,,,,,,,,,,,,,,,,,,,,,,,,,,,,,,,
1605155776.665927,126.000000,0.000000,4120.512695,4137.179688,4132.820313,4159.358887,4144.358887,4175.897461,4124.358887,4202.051270,4211.025879,4151.922852,4197.820313,4170.641113,4150.128418,4165.128418,3202.000000,4.000000,,,,0.000000,4.000000,4.000000,4.000000,4.000000,4.000000,4.000000,4.000000,4.000000,4.000000,4.000000,4.000000,4.000000,4.000000,4.000000,100.000000,,,,,,,,,,,,,,,,,,,,,,,,,,,,,,,,,,,,,,,,,,,,,,,,,,,,,,,,,,,,,,,,,,,,,,
1605155776.673709,127.000000,0.000000,4126.153809,4130.384766,4130.000000,4152.436035,4146.922852,4170.256348,4118.717773,4204.358887,4209.615234,4153.846191,4196.666504,4175.512695,4150.641113,4169.615234,54.000000,4.000000,,,,0.000000,4.000000,4.000000,4.000000,4.000000,4.000000,4.000000,4.000000,4.000000,4.000000,4.000000,4.000000,4.000000,4.000000,4.000000,100.000000,,,,,,,,,,,,,,,,,,,,,,,,,,,,,,,,,,,,,,,,,,,,,,,,,,,,,,,,,,,,,,,,,,,,,,
1605155776.681590,0.000000,0.000000,4105.256348,4123.077148,4126.025879,4151.153809,4142.563965,4169.615234,4109.743652,4203.846191,4211.410156,4152.179688,4190.128418,4173.205078,4170.000000,4167.948730,3305.000000,4.000000,,,,0.000000,4.000000,4.000000,4.000000,4.000000,4.000000,4.000000,4.000000,4.000000,4.000000,4.000000,4.000000,4.000000,4.000000,4.000000,100.000000,,,,,,,,,,,,,,,,,,,,,,,,,,,,,,,,,,,,,,,,,,,,,,,,,,,,,,,,,,,,,,,,,,,,,,
1605155776.689372,1.000000,0.000000,4088.589844,4102.179688,4121.922852,4151.410156,4132.436035,4171.153809,4114.487305,4202.179688,4210.512695,4151.794922,4167.563965,4157.820313,4160.769043,4158.461426,3215.000000,4.000000,,,,0.000000,4.000000,4.000000,4.000000,4.000000,4.000000,4.000000,4.000000,4.000000,4.000000,4.000000,4.000000,4.000000,4.000000,4.000000,100.000000,,,,,,,,,,,,,,,,,,,,,,,,,,,,,,,,,,,,,,,,,,,,,,,,,,,,,,,,,,,,,,,,,,,,,,
1605155776.697253,2.000000,0.000000,4105.128418,4104.358887,4125.769043,4140.897461,4144.487305,4174.487305,4122.948730,4203.974121,4212.436035,4164.102539,4184.230957,4162.307617,4165.384766,4166.282227,3163.000000,4.000000,,,,0.000000,4.000000,4.000000,4.000000,4.000000,4.000000,4.000000,4.000000,4.000000,4.000000,4.000000,4.000000,4.000000,4.000000,4.000000,100.000000,,,,,,,,,,,,,,,,,,,,,,,,,,,,,,,,,,,,,,,,,,,,,,,,,,,,,,,,,,,,,,,,,,,,,,
